File: utils/uploads/DE_65_3_60.mpt
EC-Lab ASCII FILE
Nb header lines : 60

Potentio Electrochemical Impedance Spectroscopy

Run on channel : 3 (SN 20921)
User :
CE vs. WE compliance from -10 V to 10 V
Electrode connection : standard
Ewe ctrl range : min = -10.00 V, max = 10.00 V
Acquisition started on : 02/20/2020 14:52:34
Technique started on : 02/20/2020 14:52:35
Saved on :
	File : DE_65_3_60.mpr
	Directory : P:\Chemistry\Data\VMP3\Kyler\DOE\DE_65\60C\
	Host : 10.0.4.64
Device : VMP3 (SN 1432)
Address : USB
EC-Lab for windows v11.33 (software)
Internet server v11.32 (firmware)
Command interpretor v11.33 (firmware)
Electrode material :
Initial state :
Electrolyte :
Comments :
Electrode surface area : 0.001 cm²
Characteristic mass : 0.001 g
Equivalent Weight : 0.000 g/eq.
Density : 0.000 g/cm3
Record Analogic IN 1
Cycle Definition : Charge/Discharge alternance
Mode                Single sine
E (V)               0.0000
vs.                 Eoc
tE (h:m:s)          0:00:0.0000
record              0
dI                  1.000
unit dI             mA
dt (s)              0.000
fi                  1.000
unit fi             MHz
ff                  1.000
unit ff             Hz
Nd                  20
Points              per decade
spacing             Logarithmic
Va (mV)             128.0
pw                  0.50
Na                  3
corr                0
E range min (V)     -10.000
E range max (V)     10.000
I Range             Auto
Bandwidth           5
nc cycles           0
goto Ns'            0
nr cycles           0
inc. cycle          1

freq/Hz	Re(Z)/Ohm	-Im(Z)/Ohm	|Z|/Ohm	Phase(Z)/deg	time/s	<Ewe>/V	<I>/mA	Cs/µF	Cp/µF	cycle number	I Range	|Ewe|/V	|I|/A	(Q-Qo)/mA.h	Analog IN 1/V	Re(Y)/Ohm-1	Im(Y)/Ohm-1	|Y|/Ohm-1	Phase(Y)/deg	dq/mA.h
1.00002e+06	86.024	31.2409	91.5212	-19.9592	1.95148	-0.00302298	-0.000545801	0.00509434	0.000593598	1	11	0.00312598	3.41558e-05	-1.34474e-07	-0.000558489	0.0102701	0.00372976	0.0109264	19.9592	-1.34474e-07
707950	93.196	23.5198	96.118	-14.1639	3.73948	-0.00195395	-0.000430052	0.00955838	0.000572323	1	11	0.00859997	8.94731e-05	-2.75131e-07	-0.000157655	0.0100876	0.0025458	0.0104039	14.1639	-2.77463e-08
501206	99.6474	19.2531	101.49	-10.9355	5.52849	-0.00131036	-0.000312625	0.0164931	0.000593547	1	11	0.019001	0.00018722	-3.1537e-07	-7.74882e-05	0.00967423	0.00186918	0.00985315	10.9355	-8.12625e-09
354810	103.902	15.8099	105.097	-8.65189	7.31548	-0.00113311	-0.000386989	0.0283723	0.00064205	1	11	0.0349666	0.000332706	-1.04633e-06	-0.000157655	0.0094067	0.00143135	0.00951498	8.65189	-1.98731e-07
251188	106.648	12.7752	107.411	-6.8308	9.10148	-0.00113203	-0.000324172	0.0495968	0.000701606	1	11	0.0580344	0.000540303	-1.7158e-06	-0.000398155	0.00924396	0.00110732	0.00931005	6.8308	-6.81805e-07
177832	108.429	10.2228	108.91	-5.38595	10.8905	-0.00110767	-0.000362184	0.0875471	0.000771333	1	11	0.089423	0.00082107	-2.81767e-06	8.28454e-05	0.00914133	0.000861849	0.00918187	5.38595	5.64648e-07
125909	109.642	8.28772	109.955	-4.32271	12.5435	-0.00107311	-0.000270665	0.15252	0.000866503	1	11	0.128746	0.0011709	-4.89542e-06	-0.000478322	0.00906879	0.000685501	0.00909466	4.32271	-9.82924e-07
89129.3	110.501	6.88696	110.715	-3.56635	14.3305	-0.000943406	-0.00034261	0.259282	0.00100326	1	11	0.129599	0.00117057	-8.12885e-06	2.67859e-06	0.0090147	0.000561841	0.00903219	3.56635	-3.06054e-06
63093.8	111.107	5.96491	111.267	-3.07305	16.1185	-0.000870625	-0.000294896	0.422892	0.00121537	1	11	0.129484	0.00116372	-5.00476e-06	-7.74882e-05	0.00897449	0.000481808	0.00898742	3.07305	7.58786e-07
44666.7	111.541	5.51479	111.677	-2.83049	17.7685	-0.000819034	-0.000227981	0.646112	0.00157555	1	11	0.130332	0.00116704	-7.13143e-06	8.28454e-05	0.00894343	0.000442178	0.00895436	2.83049	4.49966e-07
31621.1	111.891	5.5494	112.029	-2.83934	19.2825	-0.000806285	-0.000218102	0.906977	0.00222552	1	11	0.138272	0.00123425	-4.79195e-06	0.000243179	0.00891533	0.000442169	0.00892629	2.83934	1.23802e-07
22389	112.201	6.08592	112.366	-3.10475	20.9345	-0.000770668	-0.000240283	1.16804	0.00342643	1	11	0.129336	0.00115103	-3.56641e-06	-0.000718822	0.00888644	0.000482011	0.0088995	3.10475	6.27118e-07
15847.7	112.525	7.18747	112.755	-3.65476	22.4505	-0.000754136	-0.000216799	1.39726	0.00567756	1	11	0.129347	0.00114716	-4.69762e-07	-0.000237822	0.00885078	0.000565337	0.00886881	3.65476	2.66138e-06
11217.7	112.897	8.96734	113.253	-4.54143	23.8275	-0.000749774	-0.00016871	1.58217	0.00991932	1	11	0.13629	0.00120341	-7.10683e-07	2.67859e-06	0.00880208	0.000699143	0.00882981	4.54143	-1.54329e-07
7944	113.335	11.6072	113.927	-5.84757	25.295	-0.00073943	-0.00010627	1.72605	0.0179164	1	11	0.140173	0.00123037	-2.02533e-07	-0.000157655	0.00873184	0.000894273	0.00877751	5.84757	2.42463e-07
5621.06	113.864	15.3921	114.9	-7.69855	27.3763	-0.000708715	-0.000103661	1.83952	0.0330112	1	11	0.130409	0.00113498	-1.63797e-06	-0.000317989	0.00862479	0.00116589	0.00870323	7.69855	-7.712e-07
3981.27	114.534	20.7015	116.39	-10.2453	29.6567	-0.000718276	-0.000150632	1.93106	0.0610899	1	11	0.131323	0.0011283	-2.03462e-06	-0.000317989	0.00845482	0.00152817	0.00859181	10.2453	7.24927e-07
2817.3	115.406	28.1013	118.778	-13.6852	31.9359	-0.000708305	-0.000105899	2.0103	0.112524	1	11	0.131723	0.00110899	-9.07143e-07	0.000403512	0.00818006	0.00199185	0.00841907	13.6852	2.76011e-07
1995.64	116.582	38.3402	122.725	-18.2044	34.2157	-0.000716823	-0.000181573	2.0801	0.203015	1	11	0.13186	0.00107443	2.22696e-07	-0.000237822	0.00774047	0.0025456	0.00814831	18.2044	2.13067e-07
1411.84	118.145	52.5424	129.302	-23.976	36.4952	-0.000708659	-9.78867e-05	2.14548	0.354271	1	11	0.131833	0.00101957	5.14392e-07	-0.000157655	0.00706653	0.00314268	0.00773383	23.976	-5.12536e-07
1000.32	120.221	72.0801	140.173	-30.9454	38.7727	-0.000708193	-0.000146533	2.20732	0.583668	1	11	0.131711	0.00093963	-7.08092e-07	-0.000398155	0.00611855	0.00366847	0.00713402	30.9454	-7.48526e-07
707.509	122.98	99.2967	158.063	-38.9181	41.0535	-0.000705602	-0.000142434	2.26544	0.894049	1	11	0.131534	0.00083216	-1.57484e-06	-0.000237822	0.00492237	0.00397442	0.00632658	38.9181	-8.25417e-07
501.444	126.713	136.843	186.5	-47.2011	43.3252	-0.000714903	-8.35391e-05	2.31939	1.24871	1	11	0.131347	0.00070427	-2.77849e-06	-0.000317989	0.00364303	0.00393427	0.00536192	47.2011	-4.04047e-07
354.66	132.101	189.472	230.977	-55.1154	45.6049	-0.000707019	-0.000118959	2.36845	1.59373	1	11	0.131186	0.00056796	-2.46764e-06	-0.000317989	0.00247612	0.00355146	0.00432944	55.1154	-1.67073e-07
251.044	140.229	262.636	297.728	-61.9009	48.1239	-0.000710392	-6.91728e-05	2.41388	1.87838	1	12	0.132653	0.000445552	-1.98227e-06	-0.000398155	0.00158197	0.00296288	0.00335877	61.9009	2.89613e-07
177.781	153.252	364.227	395.155	-67.1807	50.4162	-0.000722731	5.54575e-07	2.45789	2.0882	1	12	0.131867	0.00033371	-2.50821e-06	-0.000398155	0.000981454	0.00233258	0.00253065	67.1807	-3.43122e-07
125.846	174.815	505.125	534.52	-70.9102	52.6914	-0.000708752	-7.43992e-05	2.5037	2.2359	1	12	0.131414	0.000245854	-2.36884e-06	0.000163012	0.000611857	0.00176796	0.00187084	70.9102	1.70587e-07
89.116	211.293	699.183	730.412	-73.1852	54.9637	-0.000715331	-7.41751e-05	2.55431	2.34056	1	12	0.131162	0.000179573	-2.4972e-06	-7.74882e-05	0.000396048	0.00131055	0.00136909	73.1852	-1.78242e-07
63.0823	274.3	964.736	1002.97	-74.1281	57.2598	-0.000710374	-8.16157e-05	2.6152	2.41959	1	12	0.131028	0.00013064	-2.46571e-06	-0.000237822	0.000272676	0.000959024	0.000997035	74.1281	-6.67023e-08
44.6712	383.111	1323.19	1377.54	-73.8524	59.5252	-0.000708845	-6.18168e-05	2.69258	2.48432	1	12	0.13096	9.50676e-05	-2.56887e-06	-0.000317989	0.000201891	0.000697292	0.000725931	73.8524	-4.63947e-08
31.6296	573.623	1796.99	1886.32	-72.2962	61.7615	-0.000714977	-7.57631e-05	2.80016	2.54121	1	12	0.130923	6.94065e-05	-2.68827e-06	0.000243179	0.000161211	0.000505026	0.000530133	72.2962	-4.5235e-08
22.3854	900.6	2401.79	2565.09	-69.4454	64.0094	-0.000712387	-7.69944e-05	2.9602	2.59529	1	12	0.130904	5.10331e-05	-2.66148e-06	-7.74882e-05	0.000136876	0.000365032	0.000389851	69.4454	-1.46063e-07
15.8576	1444.02	3123.88	3441.48	-65.1911	66.5879	-0.000707038	-2.51252e-05	3.21284	2.6472	1	13	0.130981	3.80595e-05	-2.4461e-06	0.000243179	0.000121922	0.000263756	0.000290573	65.1911	4.02477e-09
11.2249	2296.47	3891.03	4518.17	-59.451	68.9649	-0.00070974	-2.88565e-05	3.64397	2.70258	1	13	0.130931	2.89788e-05	-2.59931e-06	8.28454e-05	0.000112496	0.000190607	0.000221328	59.451	-1.1963e-07
7.93953	3511.94	4554.71	5751.44	-52.3658	71.5087	-0.000702974	-2.59811e-05	4.40113	2.76015	1	13	0.13091	2.27612e-05	-2.38106e-06	-0.000718822	0.000106168	0.000137692	0.000173869	52.3658	2.28491e-07
5.6205	5031.53	4896.26	7020.66	-44.2194	73.3737	-0.000706758	-7.11343e-05	5.78336	2.8129	1	13	0.130894	1.86441e-05	-2.55729e-06	-7.74882e-05	0.000102081	9.93365e-05	0.000142437	44.2194	-1.35371e-07
3.97785	6594.32	4799.37	8155.91	-36.0473	75.9092	-0.000707345	-2.16904e-06	8.33658	2.88676	1	13	0.130888	1.60483e-05	-2.37593e-06	8.28454e-05	9.91344e-05	7.21504e-05	0.00012261	36.0473	2.10751e-07
2.81836	7985.91	4319.83	9079.42	-28.4103	79.4076	-0.000702194	-1.6537e-05	13.0724	2.9592	1	13	0.130888	1.44159e-05	-2.34584e-06	0.000323346	9.68744e-05	5.24024e-05	0.000110139	28.4103	3.69822e-07
1.99706	9048.1	3627.51	9748.18	-21.8465	84.2697	-0.000699009	-1.9478e-05	21.9695	3.04222	1	13	0.130886	1.34267e-05	-2.4278e-06	-0.000638656	9.52162e-05	3.81734e-05	0.000102583	21.8465	1.74287e-07
1.41224	9776.73	2884.99	10193.5	-16.4407	91.0762	-0.000697783	-1.93124e-05	39.0632	3.12903	1	13	0.130886	1.28401e-05	-3.00833e-06	0.000563846	9.40906e-05	2.7765e-05	9.81016e-05	16.4407	-7.50367e-07
1.00006	10248.1	2228.46	10487.6	-12.268	100.622	-0.000696031	-1.87651e-05	71.4146	3.22437	1	13	0.130887	1.24802e-05	-2.7045e-06	-0.000237822	9.31732e-05	2.02606e-05	9.53506e-05	12.268	1.28898e-07