File: utils/DE_206_1_30.mpt
EC-Lab ASCII FILE
Nb header lines : 60

Potentio Electrochemical Impedance Spectroscopy

Run on channel : 1 (SN 20909)
User :
CE vs. WE compliance from -10 V to 10 V
Electrode connection : standard
Ewe ctrl range : min = -10.00 V, max = 10.00 V
Acquisition started on : 12/03/2020 16:54:43
Technique started on : 12/03/2020 16:54:44
Saved on :
	File : DE_206_1_30.mpr
	Directory : P:\Chemistry\Data\VMP3\Kyler\DOE\DE_206\
	Host : 10.0.4.64
Device : VMP3 (SN 1432)
Address : USB
EC-Lab for windows v11.33 (software)
Internet server v11.32 (firmware)
Command interpretor v11.33 (firmware)
Electrode material :
Initial state :
Electrolyte :
Comments :
Electrode surface area : 0.001 cm�
Characteristic mass : 0.001 g
Equivalent Weight : 0.000 g/eq.
Density : 0.000 g/cm3
Record Analogic IN 1
Cycle Definition : Charge/Discharge alternance
Mode                Single sine
E (V)               0.0000
vs.                 Eoc
tE (h:m:s)          0:00:0.0000
record              0
dI                  1.000
unit dI             mA
dt (s)              0.000
fi                  1.000
unit fi             MHz
ff                  1.000
unit ff             Hz
Nd                  20
Points              per decade
spacing             Logarithmic
Va (mV)             128.0
pw                  0.50
Na                  3
corr                0
E range min (V)     -10.000
E range max (V)     10.000
I Range             Auto
Bandwidth           5
nc cycles           0
goto Ns'            0
nr cycles           0
inc. cycle          1

freq/Hz	Re(Z)/Ohm	-Im(Z)/Ohm	|Z|/Ohm	Phase(Z)/deg	time/s	<Ewe>/V	<I>/mA	Cs/�F	Cp/�F	cycle number	I Range	|Ewe|/V	|I|/A	(Q-Qo)/mA.h	Analog IN 1/V	Re(Y)/Ohm-1	Im(Y)/Ohm-1	|Y|/Ohm-1	Phase(Y)/deg	dq/mA.h
707950	124.907	62.6547	139.74	-26.6388	3.43148	3.30536	-0.00148847	0.00358809	0.000721319	1	11	0.0017053	1.22033e-05	-1.97817e-06	0.000422931	0.00639651	0.00320856	0.00715613	26.6388	-3.47568e-07
501206	143.034	60.8716	155.448	-23.0534	5.22049	3.30641	-0.000468145	0.00521661	0.000799924	1	11	0.00455797	2.93215e-05	-2.96826e-06	-0.000138486	0.00591928	0.0025191	0.00643302	23.0534	-3.35593e-07
354810	158.866	58.9983	169.468	-20.3735	7.00747	3.30693	-0.000123621	0.007603	0.000921487	1	11	0.0238764	0.000140891	-3.06598e-06	-0.000379094	0.00553169	0.0020543	0.00590082	20.3735	8.98122e-08
251188	172.837	55.9606	181.671	-17.9407	8.79249	3.3071	-0.000131827	0.0113224	0.00107432	1	11	0.0566968	0.000312085	-3.25414e-06	-5.82835e-05	0.00523681	0.00169555	0.00550446	17.9407	-1.6893e-07
177832	184.964	52.5423	192.282	-15.8581	10.5815	3.30723	7.79502e-05	0.0170334	0.00127186	1	11	0.101687	0.000528843	-4.13957e-06	-0.000298891	0.00500275	0.00142112	0.00520068	15.8581	1.65403e-07
125909	195.684	49.4096	201.825	-14.1708	12.0975	3.30735	0.000108377	0.025583	0.00153328	1	11	0.130389	0.000646049	-5.6904e-06	-5.82835e-05	0.00480401	0.001213	0.00495478	14.1708	-1.46783e-06
89129.3	205.224	46.9281	210.521	-12.8803	13.8855	3.30743	3.6893e-05	0.0380511	0.00189079	1	11	0.129656	0.000615882	-5.47134e-06	2.1919e-05	0.0046306	0.00105887	0.00475013	12.8803	7.54533e-10
63093.8	213.912	45.3332	218.663	-11.9654	15.6735	3.3075	3.91301e-05	0.0556438	0.00239166	1	11	0.12933	0.000591457	-6.28756e-06	0.000583336	0.00447389	0.000948127	0.00457325	11.9654	2.9708e-07
44666.7	222.039	44.8985	226.533	-11.4316	17.1875	3.3075	1.71087e-05	0.0793604	0.00311749	1	11	0.139344	0.000615116	-6.89355e-06	-5.82835e-05	0.0043268	0.000874922	0.00441437	11.4316	-5.65643e-07
31621.1	230.019	45.8189	234.538	-11.2657	18.8395	3.30755	0.000105011	0.109849	0.0041924	1	11	0.129507	0.000552182	-5.27989e-06	-0.000138486	0.00418155	0.000832951	0.00426371	11.2657	7.03649e-07
22389	238.161	48.2112	242.992	-11.4438	20.3545	3.30755	6.35785e-05	0.147447	0.0058043	1	11	0.129381	0.00053245	-5.62025e-06	-5.82835e-05	0.00403355	0.000816516	0.00411536	11.4438	-4.01443e-07
15847.7	246.992	52.1303	252.433	-11.918	21.7345	3.30756	-3.45898e-05	0.192648	0.00821582	1	11	0.13617	0.000539428	-6.20293e-06	-0.000539499	0.00387605	0.000818082	0.00396144	11.918	2.49032e-07
11217.7	256.958	57.6628	263.348	-12.648	23.1135	3.30755	-3.40304e-05	0.246048	0.0117964	1	11	0.139675	0.000530382	-6.26801e-06	-5.82835e-05	0.00370511	0.000831448	0.00379725	12.648	-4.19196e-07
7944	268.55	64.6536	276.223	-13.5364	24.723	3.30758	-1.63004e-05	0.309876	0.0169768	1	11	0.129639	0.000469328	-6.61727e-06	0.000342729	0.0035197	0.000847373	0.00362027	13.5364	-4.96625e-07
5621.06	282.418	72.9614	291.69	-14.4854	26.6353	3.30761	-9.20733e-05	0.388069	0.0242802	1	11	0.130234	0.00044648	-6.81629e-06	0.000422931	0.00331931	0.000857531	0.0034283	14.4854	-3.58883e-07
3981.27	299.083	82.1692	310.165	-15.3622	28.9157	3.30757	-0.00029121	0.486507	0.0341445	1	11	0.13042	0.000420485	-6.88206e-06	-0.000138486	0.00310889	0.000854128	0.00322409	15.3622	3.17871e-07
2817.3	319.275	91.4565	332.116	-15.9844	31.1959	3.3076	-0.000195656	0.617694	0.0468407	1	11	0.130434	0.000392737	-6.32191e-06	0.000102121	0.00289458	0.000829155	0.003011	15.9844	2.63099e-07
1995.64	343.122	99.6569	357.301	-16.1955	33.7267	3.3076	-3.62621e-05	0.800259	0.0622553	1	12	0.132624	0.000371181	-6.78225e-06	0.000262526	0.00268769	0.000780617	0.00279876	16.1955	-3.10501e-08
1411.84	370.442	105.073	385.055	-15.8355	36.0082	3.3076	-4.72373e-05	1.07287	0.0798876	1	12	0.131956	0.000342693	-7.44496e-06	0.000262526	0.00249847	0.00070867	0.00259703	15.8355	-1.56098e-07
1000.32	399.66	106.065	413.494	-14.863	38.2857	3.3076	-6.33631e-05	1.50006	0.0986992	1	12	0.131346	0.000317648	-7.72306e-06	-5.82835e-05	0.0023375	0.000620344	0.00241841	14.863	-1.63628e-07
707.509	428.641	101.792	440.562	-13.359	40.5654	3.3076	-6.31401e-05	2.2099	0.117975	1	12	0.130888	0.000297093	-8.0977e-06	0.000262526	0.00220841	0.000524446	0.00226983	13.359	-2.95575e-07
501.444	454.485	93.0235	463.907	-11.5675	42.8372	3.3076	-7.64665e-05	3.41197	0.137192	1	12	0.130593	0.000281506	-8.58018e-06	0.000182324	0.00211182	0.000432246	0.0021556	11.5675	-1.37677e-07
354.66	475.804	81.6903	482.766	-9.74207	45.1169	3.3076	-0.000125927	5.49336	0.157292	1	12	0.130408	0.000270126	-8.55802e-06	-0.000138486	0.00204153	0.000350507	0.0020714	9.74207	-1.46162e-07
251.044	492.001	70.2281	496.988	-8.12351	47.3849	3.3076	-4.90132e-05	9.02732	0.180256	1	12	0.130297	0.000262173	-8.37274e-06	-0.000138486	0.00199193	0.000284328	0.00201212	8.12351	3.01444e-07
177.781	504.187	60.245	507.774	-6.81392	49.6762	3.3076	1.47253e-06	14.8598	0.209177	1	12	0.130238	0.000256487	-8.23065e-06	-0.000218689	0.00195547	0.000233658	0.00196938	6.81392	-1.28615e-07
125.846	513.598	52.566	516.281	-5.8438	51.9514	3.3076	-4.76516e-05	24.059	0.249411	1	12	0.130198	0.000252184	-8.11028e-06	0.000102121	0.00192687	0.000197212	0.00193693	5.8438	1.18591e-07
89.116	521.355	47.3901	523.504	-5.1938	54.2237	3.30761	-1.19113e-05	37.6857	0.308825	1	12	0.130184	0.000248677	-8.36356e-06	0.000102121	0.00190236	0.000172921	0.00191021	5.1938	-1.9931e-07
63.0823	528.291	44.5405	530.165	-4.81924	56.5198	3.30761	-3.25348e-05	56.6445	0.399803	1	12	0.130167	0.000245522	-8.33845e-06	2.1919e-05	0.00187954	0.000158465	0.00188621	4.81924	-1.34038e-07
44.6712	535.008	43.8561	536.803	-4.68622	58.7842	3.3076	-3.82455e-05	81.2385	0.542242	1	12	0.130162	0.000242476	-8.32027e-06	0.000102121	0.00185665	0.000152195	0.00186288	4.68622	-1.32783e-07
31.6296	541.975	45.123	543.85	-4.75927	61.0214	3.3076	-1.49155e-05	111.514	0.767655	1	12	0.130155	0.000239322	-8.50398e-06	0.000422931	0.0018324	0.000152559	0.00183874	4.75927	2.18689e-08
22.3854	549.569	48.2143	551.68	-5.01378	63.2694	3.30759	3.15107e-06	147.462	1.12631	1	12	0.130152	0.000235919	-8.44851e-06	0.000182324	0.00180571	0.000158417	0.00181264	5.01378	-7.40671e-07
15.8576	558.003	53.0774	560.522	-5.43363	65.598	3.3076	1.13259e-05	189.092	1.69554	1	12	0.130151	0.000232195	-7.92013e-06	2.1919e-05	0.00177603	0.000168937	0.00178405	5.43363	5.34365e-07
11.2249	567.709	59.7511	570.844	-6.00824	67.9749	3.30759	-3.73308e-05	237.298	2.59986	1	12	0.130147	0.000227991	-8.98739e-06	-0.000379094	0.00174217	0.000183362	0.00175179	6.00824	-5.70821e-07
7.93953	578.964	68.4585	582.997	-6.74352	70.5187	3.3076	-3.81894e-05	292.818	4.03756	1	12	0.130145	0.000223234	-6.95281e-06	0.000102121	0.00170341	0.000201416	0.00171527	6.74352	2.32171e-06
5.6205	591.94	79.1577	597.21	-7.61674	72.3837	3.3076	0.000427064	357.727	6.2847	1	12	0.130145	0.000217923	-8.73679e-06	-0.000218689	0.00165968	0.000221942	0.00167445	7.61674	-1.4155e-06
3.97785	607.832	91.9151	614.742	-8.59901	74.9192	3.30759	-4.72508e-05	435.296	9.73135	1	12	0.130146	0.000211708	-6.03086e-06	-0.000218689	0.00160841	0.000243221	0.0016267	8.59901	3.14913e-06
2.81836	626.189	106.859	635.241	-9.68418	78.4187	3.30761	-4.43553e-05	528.462	14.9539	1	12	0.130149	0.000204881	-5.36057e-06	2.1919e-05	0.00155177	0.000264808	0.0015742	9.68418	5.66029e-06
1.99706	648.224	124.275	660.029	-10.8529	83.2816	3.30762	6.16715e-05	641.274	22.7347	1	12	0.130149	0.000197188	-4.00153e-06	-5.82835e-05	0.00148799	0.000285272	0.00151509	10.8529	6.2605e-06
1.41224	674.175	144.017	689.386	-12.0583	90.0881	3.30762	0.000209657	782.524	34.1509	1	12	0.130147	0.000188787	-1.01319e-05	-0.000298891	0.00141856	0.000303033	0.00145057	12.0583	-6.1492e-06
1.00006	704.649	166.988	724.166	-13.3321	99.6342	3.30761	0.00016301	953.029	50.6761	1	12	0.130149	0.000179723	-1.31699e-05	2.1919e-05	0.00134368	0.000318427	0.0013809	13.3321	-8.44023e-06