File: utils/DE_206_2_30.mpt
EC-Lab ASCII FILE
Nb header lines : 60

Potentio Electrochemical Impedance Spectroscopy

Run on channel : 2 (SN 20919)
User :
CE vs. WE compliance from -10 V to 10 V
Electrode connection : standard
Ewe ctrl range : min = -10.00 V, max = 10.00 V
Acquisition started on : 12/03/2020 16:54:32
Technique started on : 12/03/2020 16:54:33
Saved on :
	File : DE_206_2_30.mpr
	Directory : P:\Chemistry\Data\VMP3\Kyler\DOE\DE_206\
	Host : 10.0.4.64
Device : VMP3 (SN 1432)
Address : USB
EC-Lab for windows v11.33 (software)
Internet server v11.32 (firmware)
Command interpretor v11.33 (firmware)
Electrode material :
Initial state :
Electrolyte :
Comments :
Electrode surface area : 0.001 cm²
Characteristic mass : 0.001 g
Equivalent Weight : 0.000 g/eq.
Density : 0.000 g/cm3
Record Analogic IN 1
Cycle Definition : Charge/Discharge alternance
Mode                Single sine
E (V)               0.0000
vs.                 Eoc
tE (h:m:s)          0:00:0.0000
record              0
dI                  1.000
unit dI             mA
dt (s)              0.000
fi                  1.000
unit fi             MHz
ff                  1.000
unit ff             Hz
Nd                  20
Points              per decade
spacing             Logarithmic
Va (mV)             128.0
pw                  0.50
Na                  3
corr                0
E range min (V)     -10.000
E range max (V)     10.000
I Range             Auto
Bandwidth           5
nc cycles           0
goto Ns'            0
nr cycles           0
inc. cycle          1

freq/Hz	Re(Z)/Ohm	-Im(Z)/Ohm	|Z|/Ohm	Phase(Z)/deg	time/s	<Ewe>/V	<I>/mA	Cs/µF	Cp/µF	cycle number	I Range	|Ewe|/V	|I|/A	(Q-Qo)/mA.h	Analog IN 1/V	Re(Y)/Ohm-1	Im(Y)/Ohm-1	|Y|/Ohm-1	Phase(Y)/deg	dq/mA.h
1.00002e+06	123.064	79.5043	146.512	-32.8641	1.9495	3.30793	-0.00260698	0.0020018	0.000589464	1	11	0.0018413	1.25676e-05	-7.21492e-07	2.39641e-05	0.00573305	0.00370378	0.00682539	32.8641	-7.21492e-07
707950	144.36	78.3115	164.233	-28.4786	3.73649	3.30905	-0.00143317	0.00287073	0.000652709	1	11	0.00842787	5.13164e-05	-1.59655e-06	0.000104145	0.00535211	0.00290337	0.00608889	28.4786	-1.13629e-07
501206	167.257	79.2228	185.07	-25.345	5.52349	3.30968	-0.000977842	0.00400824	0.00073448	1	11	0.0230409	0.000124498	-2.48386e-06	0.000344687	0.00488326	0.002313	0.00540335	25.345	-3.53296e-07
354810	188.81	77.9195	204.256	-22.4253	7.30948	3.30989	-0.000945874	0.00575676	0.00083776	1	11	0.0464082	0.000227206	-3.28773e-06	2.39641e-05	0.00452558	0.00186765	0.00489581	22.4253	-5.68661e-07
251188	208.067	74.3805	220.963	-19.6711	9.09449	3.30989	-0.000989542	0.00851849	0.000965257	1	11	0.0795028	0.000359802	-3.5644e-06	-0.00037694	0.00426154	0.00152342	0.00452565	19.6711	-3.21946e-07
177832	224.854	69.7733	235.431	-17.2394	10.7465	3.3099	-0.000971886	0.0128269	0.00112661	1	11	0.12304	0.000522618	-3.47548e-06	-0.000216578	0.00405671	0.00125882	0.00424753	17.2394	-4.11674e-07
125909	239.494	65.1361	248.194	-15.2149	12.3985	3.30994	-0.00104641	0.0194062	0.0013366	1	11	0.129951	0.000523586	-4.63575e-06	-0.000136398	0.00388789	0.0010574	0.00402911	15.2149	-4.78509e-07
89129.3	252.364	61.1043	259.656	-13.6109	14.1855	3.30998	-0.00105273	0.0292232	0.00161835	1	11	0.129488	0.00049869	-5.34818e-06	-0.000457121	0.00374309	0.000906303	0.00385124	13.6109	-5.54218e-07
63093.8	263.798	58.0882	270.117	-12.4183	15.8365	3.31002	-0.000999949	0.0434255	0.00200824	1	11	0.140316	0.000519461	-7.00481e-06	-0.000216578	0.00361548	0.000796128	0.00370209	12.4183	-6.22784e-07
44666.7	274.321	56.464	280.072	-11.6308	17.4865	3.31003	-0.00100627	0.0631052	0.00256488	1	11	0.130061	0.000464384	-7.73924e-06	-5.62167e-05	0.0034972	0.000719833	0.00357051	11.6308	4.81151e-07
31621.1	284.321	56.5078	289.882	-11.2408	19.0005	3.31005	-0.000929327	0.0890706	0.0033846	1	11	0.134727	0.000464766	-9.08443e-06	2.39641e-05	0.0033835	0.000672458	0.00344968	11.2408	-4.83578e-07
22389	294.35	58.2684	300.062	-11.1973	20.5155	3.31005	-0.000929327	0.121998	0.00460041	1	11	0.132529	0.000441672	-9.17013e-06	0.000344687	0.00326921	0.00064716	0.00333265	11.1973	-7.63959e-08
15847.7	305.006	61.8597	311.216	-11.4649	21.8955	3.31004	-0.00100199	0.162348	0.00641416	1	11	0.138728	0.000445763	-8.83678e-06	0.000104145	0.00314909	0.000638683	0.00321321	11.4649	2.66528e-07
11217.7	316.794	67.2898	323.862	-11.9919	23.4095	3.31006	-0.00103507	0.210847	0.00910219	1	11	0.130101	0.000401719	-8.86313e-06	-0.000136398	0.00302036	0.000641549	0.00308774	11.9919	-2.43321e-07
7944	330.303	74.4086	338.58	-12.6953	24.878	3.31007	-0.0010295	0.269251	0.0130041	1	11	0.131481	0.00038833	-9.46138e-06	-0.000136398	0.0028813	0.000649082	0.00295351	12.6953	-2.04451e-07
5621.06	346.163	82.9684	355.967	-13.4784	26.7903	3.31008	-0.00115848	0.341263	0.0185394	1	11	0.132063	0.000370999	-9.92602e-06	-0.00037694	0.00273188	0.000654777	0.00280925	13.4784	-1.31882e-07
3981.27	365.029	92.4834	376.563	-14.2172	29.0707	3.31008	-0.00115067	0.432249	0.0260728	1	11	0.132264	0.000351239	-1.1156e-05	0.000344687	0.00257426	0.000652213	0.0026556	14.2172	-4.61401e-07
2817.3	387.622	102.221	400.874	-14.7733	31.602	3.31008	-0.000166842	0.552647	0.0359345	1	12	0.134355	0.000335156	-1.2237e-05	-0.000216578	0.00241208	0.000636097	0.00249455	14.7733	-3.29641e-07
1995.64	413.94	110.63	428.469	-14.9633	33.8817	3.31009	-0.000159904	0.720881	0.048059	1	12	0.134052	0.000312863	-1.24094e-05	0.000184326	0.00225475	0.00060261	0.00233389	14.9633	-2.40458e-07
1411.84	443.905	116.207	458.863	-14.6699	36.1612	3.31008	-0.000162124	0.970073	0.0622158	1	12	0.133537	0.000291016	-1.24835e-05	0.00058523	0.00210826	0.000551906	0.0021793	14.6699	-2.54748e-07
1000.32	475.787	117.221	490.014	-13.8404	38.4377	3.31009	-0.000182509	1.3573	0.0776726	1	12	0.133064	0.000271551	-1.22907e-05	0.000264507	0.0019815	0.000488188	0.00204076	13.8404	2.10464e-07
707.509	507.587	112.779	519.965	-12.5269	40.7184	3.31009	-0.000142414	1.99461	0.093836	1	12	0.132699	0.000255208	-1.21479e-05	2.39641e-05	0.00187742	0.00041714	0.00192321	12.5269	1.4202e-07
501.444	536.123	103.633	546.047	-10.9404	42.9902	3.31009	-0.000142135	3.06268	0.110315	1	12	0.132459	0.000242578	-1.19744e-05	-5.62167e-05	0.00179806	0.000347565	0.00183134	10.9404	1.57468e-07
354.66	559.939	91.5559	567.374	-9.28629	45.2699	3.31008	-0.000230588	4.90142	0.127631	1	12	0.132305	0.000233188	-1.23969e-05	-0.000216578	0.00173941	0.000284411	0.0017625	9.28629	-5.21104e-08
251.044	578.31	79.2467	583.714	-7.80273	47.5379	3.3101	-0.000137529	7.99997	0.147452	1	12	0.132215	0.000226506	-1.25701e-05	-5.62167e-05	0.00169731	0.000232584	0.00171317	7.80273	-2.34877e-07
177.781	592.264	68.5141	596.214	-6.59874	49.8283	3.31009	-9.70785e-05	13.0663	0.172548	1	12	0.132161	0.000221667	-1.27899e-05	2.39641e-05	0.00166614	0.000192742	0.00167725	6.59874	1.94773e-07
125.846	603.191	60.1794	606.186	-5.69745	52.1034	3.31009	-0.000140103	21.0152	0.207118	1	12	0.132135	0.000217978	-1.29407e-05	0.000344687	0.00164151	0.000163771	0.00164966	5.69745	-2.60845e-08
89.116	612.214	54.6332	614.647	-5.09949	54.3757	3.3101	-0.000122572	32.6895	0.258267	1	12	0.132116	0.000214946	-1.27511e-05	-0.000216578	0.00162051	0.000144612	0.00162695	5.09949	3.52982e-08
63.0823	620.36	51.8082	622.519	-4.77388	56.6719	3.31009	-0.000119626	48.6983	0.337292	1	12	0.132106	0.000212212	-1.28117e-05	0.000344687	0.0016008	0.000133688	0.00160638	4.77388	8.23942e-08
44.6712	628.294	51.3309	630.387	-4.67062	58.9372	3.3101	-0.000103625	69.4087	0.46021	1	12	0.132099	0.000209553	-1.2999e-05	0.000344687	0.00158106	0.000129171	0.00158633	4.67062	8.14e-08
31.6296	636.477	53.0674	638.686	-4.76611	61.1745	3.3101	-8.05928e-05	94.8198	0.654607	1	12	0.132096	0.000206824	-1.29861e-05	0.000104145	0.0015603	0.000130093	0.00156571	4.76611	-1.04036e-07
22.3854	645.438	57.0961	647.958	-5.05529	63.4224	3.31009	-0.000144206	124.523	0.96687	1	12	0.132096	0.000203865	-1.30391e-05	-0.00037694	0.00153731	0.000135992	0.00154331	5.05529	6.21023e-07
15.8576	655.348	63.201	658.388	-5.5085	65.7509	3.31008	-0.000101834	158.803	1.46333	1	12	0.132089	0.000200625	-1.36968e-05	2.39641e-05	0.00151185	0.000145801	0.00151886	5.5085	-7.06784e-07
11.2249	666.846	71.6247	670.682	-6.13053	68.1279	3.31009	-3.41004e-05	197.96	2.25771	1	12	0.132091	0.00019695	-1.29075e-05	0.000184326	0.00148249	0.000159232	0.00149102	6.13053	1.45986e-07
7.93953	680.365	82.3189	685.327	-6.89881	70.6717	3.31009	-4.69593e-05	243.515	3.51341	1	12	0.132092	0.000192744	-1.4519e-05	-0.000216578	0.00144859	0.000175269	0.00145916	6.89881	-2.0089e-06
5.6205	695.993	95.606	702.529	-7.82155	72.5366	3.31008	-0.000233368	296.183	5.48531	1	12	0.132094	0.000188026	-1.26211e-05	0.000184326	0.00141019	0.000193712	0.00142343	7.82155	1.30997e-06
3.97785	714.947	111.394	723.573	-8.85588	75.0722	3.31008	-6.04429e-05	359.179	8.51271	1	12	0.13209	0.000182552	-1.54305e-05	-5.62167e-05	0.00136556	0.000212763	0.00138203	8.85588	-2.28141e-06
2.81836	737.052	130.099	748.446	-10.0103	78.5716	3.3101	4.58102e-05	434.059	13.1153	1	12	0.13209	0.000176486	-1.61341e-05	-0.000136398	0.00131576	0.000232249	0.0013361	10.0103	-4.71607e-06
1.99706	763.753	151.706	778.674	-11.2345	83.4337	3.3101	-3.92852e-05	525.324	19.9397	1	12	0.132092	0.000169637	-1.64733e-05	-5.62167e-05	0.00125963	0.000250202	0.00128423	11.2345	-3.95454e-06
1.41224	795.085	176.561	814.453	-12.5203	90.2401	3.31011	-0.000160918	638.289	29.9968	1	12	0.13209	0.000162183	-1.03967e-05	-0.000136398	0.00119862	0.000266172	0.00122782	12.5203	7.25039e-06
1.00006	832.466	205.288	857.405	-13.8529	99.7863	3.31011	-1.6097e-05	775.225	44.4411	1	12	0.132091	0.00015406	-1.02284e-05	-0.000136398	0.00113239	0.00027925	0.00116631	13.8529	4.28904e-06