File: utils/DE_206_7_30.mpt
EC-Lab ASCII FILE
Nb header lines : 60

Potentio Electrochemical Impedance Spectroscopy

Run on channel : 7 (SN 41379)
User :
CE vs. WE compliance from -10 V to 10 V
Electrode connection : standard
Ewe ctrl range : min = -10.00 V, max = 10.00 V
Acquisition started on : 12/03/2020 16:53:31
Technique started on : 12/03/2020 16:53:33
Saved on :
	File : DE_206_7_30.mpr
	Directory : P:\Chemistry\Data\VMP3\Kyler\DOE\DE_206\
	Host : 10.0.4.64
Device : VMP3 (SN 1432)
Address : USB
EC-Lab for windows v11.33 (software)
Internet server v11.32 (firmware)
Command interpretor v11.33 (firmware)
Electrode material :
Initial state :
Electrolyte :
Comments :
Electrode surface area : 0.001 cm²
Characteristic mass : 0.001 g
Equivalent Weight : 0.000 g/eq.
Density : 0.000 g/cm3
Record Analogic IN 1
Cycle Definition : Charge/Discharge alternance
Mode                Single sine
E (V)               0.0000
vs.                 Eoc
tE (h:m:s)          0:00:0.0000
record              0
dI                  1.000
unit dI             mA
dt (s)              0.000
fi                  1.000
unit fi             MHz
ff                  1.000
unit ff             Hz
Nd                  20
Points              per decade
spacing             Logarithmic
Va (mV)             128.0
pw                  0.50
Na                  3
corr                0
E range min (V)     -10.000
E range max (V)     10.000
I Range             Auto
Bandwidth           5
nc cycles           0
goto Ns'            0
nr cycles           0
inc. cycle          1

freq/Hz	Re(Z)/Ohm	-Im(Z)/Ohm	|Z|/Ohm	Phase(Z)/deg	time/s	<Ewe>/V	<I>/mA	Cs/µF	Cp/µF	cycle number	I Range	|Ewe|/V	|I|/A	(Q-Qo)/mA.h	Analog IN 1/V	Re(Y)/Ohm-1	Im(Y)/Ohm-1	|Y|/Ohm-1	Phase(Y)/deg	dq/mA.h
1.00002e+06	119.101	75.9986	141.283	-32.542	2.96347	3.33283	-0.000691654	0.00209414	0.000605951	1	11	0.000185278	1.3114e-06	-3.89761e-05	0.00092617	0.00596673	0.00380737	0.00707799	32.542	-3.89761e-05
707950	138.687	73.0268	156.739	-27.7694	4.75048	3.33172	-0.00247113	0.00307847	0.000668263	1	11	0.00523283	3.33857e-05	-4.02185e-05	0.00100632	0.00564525	0.00297255	0.00638004	27.7694	-5.48405e-07
501206	160.534	73.2876	176.472	-24.5378	6.53949	3.33151	-0.00256135	0.00433285	0.000747281	1	11	0.0185225	0.00010496	-4.14685e-05	0.00100632	0.00515486	0.00235332	0.00566663	24.5378	-4.70444e-07
354810	180.812	71.0526	194.272	-21.453	8.32449	3.33142	-0.00260041	0.00631312	0.000844472	1	11	0.0411556	0.000211846	-4.2025e-05	0.00148724	0.0047908	0.00188261	0.00514743	21.453	-5.98777e-08
251188	198.671	66.3899	209.47	-18.4781	10.1095	3.33129	-0.00280224	0.00954377	0.000958695	1	11	0.0737982	0.000352309	-4.41618e-05	0.00116663	0.00452783	0.00151307	0.00477395	18.4781	-8.40093e-07
177832	213.9	60.4913	222.289	-15.791	11.7615	3.33125	-0.00271983	0.0147951	0.00109564	1	11	0.1168	0.000525442	-4.59311e-05	0.00092617	0.00432887	0.00122421	0.00449865	15.791	-4.45337e-07
125909	226.812	54.3474	233.232	-13.4749	13.4145	3.33128	-0.00265938	0.0232586	0.00126289	1	11	0.12992	0.000557043	-4.6996e-05	0.000605557	0.00416955	0.000999086	0.00428758	13.4749	-3.93392e-07
89129.3	237.766	48.4353	242.649	-11.5142	15.2025	3.3313	-0.002675	0.036867	0.00146894	1	11	0.129625	0.000534208	-4.82139e-05	0.00092617	0.00403824	0.00082263	0.00412118	11.5142	-1.32844e-06
63093.8	246.932	43.0756	250.661	-9.89531	16.8535	3.33134	-0.00251893	0.0585601	0.00172939	1	11	0.140416	0.000560186	-4.95822e-05	0.00100632	0.00393011	0.000685583	0.00398946	9.89531	1.29311e-07
44666.7	254.671	38.5605	257.574	-8.60993	18.5045	3.33135	-0.00257176	0.0924046	0.00207098	1	11	0.130008	0.00050474	-5.12427e-05	0.00100632	0.00383863	0.000581219	0.00388239	8.60993	-1.22797e-06
31621.1	261.3	35.0206	263.637	-7.63354	20.0205	3.33134	-0.00262738	0.14372	0.00253603	1	11	0.134959	0.000511913	-5.39824e-05	0.00140709	0.00375948	0.000503863	0.0037931	7.63354	-7.40247e-07
22389	267.131	32.574	269.11	-6.95233	21.5355	3.33135	-0.00253549	0.21823	0.0031974	1	11	0.132644	0.000492897	-5.59983e-05	0.00108648	0.00368863	0.000449792	0.00371596	6.95233	-5.13917e-07
15847.7	272.5	31.2768	274.289	-6.54762	22.9125	3.33136	-0.00259557	0.321093	0.00417505	1	11	0.139201	0.000507499	-5.79074e-05	0.000685711	0.00362201	0.000415726	0.00364579	6.54762	-7.22308e-07
11217.7	277.674	31.0772	279.407	-6.38597	24.4265	3.33137	-0.00254162	0.456534	0.00564784	1	11	0.130232	0.0004661	-5.82937e-05	0.00124678	0.0035568	0.000398076	0.003579	6.38597	3.37622e-08
7944	283.109	31.9854	284.91	-6.44589	25.894	3.33142	-0.00242053	0.626368	0.00789436	1	11	0.131859	0.000462811	-5.898e-05	0.00100632	0.00348769	0.000394036	0.00350988	6.44589	1.07692e-07
5621.06	289.113	33.9346	291.098	-6.69445	27.8063	3.33144	-0.0025952	0.834372	0.0113388	1	11	0.132649	0.000455687	-6.04751e-05	0.00132694	0.00341185	0.000400465	0.00343527	6.69445	-1.89095e-07
3981.27	296.066	36.7226	298.334	-7.07058	30.0857	3.33144	-0.00260059	1.08859	0.0164939	1	11	0.133009	0.00044584	-6.24982e-05	0.00148724	0.00332645	0.000412597	0.00335194	7.07058	-9.34207e-07
2817.3	304.359	39.9766	306.974	-7.48278	32.3639	3.33144	-0.00262459	1.41313	0.0239658	1	11	0.133159	0.000433779	-6.31675e-05	0.00164755	0.00322987	0.000424232	0.00325761	7.48278	-2.64801e-07
1995.64	314.259	43.1076	317.202	-7.81064	34.6437	3.33144	-0.00263724	1.85005	0.0341681	1	11	0.133202	0.000419929	-6.53588e-05	0.000846017	0.00312332	0.000428432	0.00315257	7.81064	-3.88271e-07
1411.84	325.688	45.3867	328.836	-7.93343	36.9242	3.33143	-0.00261715	2.48374	0.0473158	1	11	0.133203	0.000405076	-6.77251e-05	0.00092617	0.00301193	0.000419731	0.00304103	7.93343	-8.15459e-07
1000.32	337.996	45.9301	341.103	-7.73848	39.4537	3.33143	-0.000205406	3.46405	0.062807	1	12	0.133729	0.000392049	-6.80915e-05	0.00100632	0.00290497	0.000394755	0.00293167	7.73848	2.76203e-07
707.509	350.37	44.3433	353.165	-7.21309	41.7344	3.33143	-0.000182858	5.07294	0.0799763	1	12	0.133564	0.000378191	-6.77856e-05	0.00164755	0.00280913	0.000355528	0.00283154	7.21309	1.91518e-07
501.444	361.444	40.9674	363.758	-6.46651	44.0062	3.33142	-0.000213879	7.74746	0.0982675	1	12	0.133414	0.000366764	-6.76066e-05	0.00108648	0.00273159	0.000309608	0.00274908	6.46651	2.61207e-07
354.66	370.658	36.6252	372.463	-5.64316	46.286	3.33143	-0.000209857	12.2526	0.118474	1	12	0.133311	0.000357919	-6.8286e-05	0.00124678	0.00267182	0.000264007	0.00268483	5.64316	-1.27736e-07
251.044	377.867	32.3077	379.246	-4.88691	48.5549	3.33142	-0.000237004	19.6229	0.142408	1	12	0.133245	0.000351341	-6.78658e-05	0.00092617	0.00262723	0.000224628	0.00263681	4.88691	3.44963e-07
177.781	383.488	28.79	384.567	-4.29338	50.8463	3.33142	-0.000142883	31.0951	0.174274	1	12	0.1332	0.000346363	-6.79931e-05	0.00124678	0.00259303	0.00019467	0.00260033	4.29338	-3.2136e-07
125.846	388.064	26.3453	388.957	-3.8838	53.1214	3.33142	-0.000210956	48.0041	0.220233	1	12	0.133178	0.000342397	-6.79691e-05	0.000765864	0.00256507	0.000174141	0.00257098	3.8838	4.26258e-08
89.116	392.115	25.1417	392.92	-3.66868	55.3937	3.33143	-0.000170849	71.0346	0.290838	1	12	0.133164	0.000338909	-6.84971e-05	0.0015674	0.00253983	0.000162849	0.00254505	3.66868	-2.24737e-07
63.0823	396.024	25.0583	396.816	-3.62055	57.6898	3.33143	-0.000241883	100.684	0.401501	1	12	0.13315	0.000335546	-6.86144e-05	0.00092617	0.00251503	0.000159138	0.00252006	3.62055	-2.32307e-07
44.6712	400.118	26.0744	400.967	-3.72851	59.9542	3.33143	-0.000207102	136.64	0.577817	1	12	0.133149	0.000332069	-6.85416e-05	0.00164755	0.00248869	0.00016218	0.00249397	3.72851	-2.02145e-07
31.6296	404.604	28.1002	405.579	-3.97287	62.1915	3.33143	-0.000232033	179.068	0.859578	1	12	0.133146	0.000328287	-6.87411e-05	0.00132694	0.00245969	0.000170828	0.00246561	3.97287	1.23371e-07
22.3854	409.63	31.098	410.809	-4.34141	64.4384	3.33142	-0.000159827	228.625	1.31011	1	12	0.133138	0.000324087	-6.88567e-05	0.0015674	0.00242724	0.000184269	0.00243422	4.34141	-9.84332e-07
15.8576	415.478	35.0179	416.951	-4.8177	66.7669	3.33143	-0.000264021	286.611	2.02164	1	12	0.133139	0.000319316	-6.79023e-05	0.00148724	0.00238989	0.000201428	0.00239836	4.8177	1.32087e-06
11.2249	422.247	39.9488	424.133	-5.40466	69.1439	3.33141	-0.000357454	354.925	3.14876	1	12	0.133131	0.000313889	-6.92118e-05	0.00092617	0.00234727	0.000222075	0.00235775	5.40466	1.81563e-07
7.93953	430.209	45.8902	432.65	-6.08869	71.6867	3.33143	-0.000304622	436.822	4.91442	1	12	0.133134	0.000307717	-6.73296e-05	0.0015674	0.0022983	0.000245159	0.00231134	6.08869	2.85456e-06
5.6205	439.362	52.8955	442.535	-6.86488	73.5517	3.33141	-9.15869e-05	535.336	7.64835	1	12	0.133131	0.000300838	-7.10019e-05	0.00132694	0.00224351	0.000270099	0.00225971	6.86488	-2.17076e-06
3.97785	450.216	60.8412	454.308	-7.6962	76.0872	3.33142	-0.000266909	657.619	11.7942	1	12	0.13313	0.000293039	-6.63073e-05	0.00100632	0.00218132	0.000294779	0.00220115	7.6962	2.33453e-06
2.81836	462.637	70.1491	467.925	-8.62202	79.5847	3.33143	-0.000285906	805.01	18.0923	1	12	0.133128	0.000284508	-6.51628e-05	0.00132694	0.00211294	0.000320384	0.0021371	8.62202	6.30699e-06
1.99706	477.133	80.6333	483.899	-9.59209	84.4467	3.33143	-0.000180995	988.358	27.4432	1	12	0.133129	0.000275118	-6.67601e-05	0.00108648	0.00203766	0.000344355	0.00206655	9.59209	2.40073e-06
1.41224	493.788	92.7442	502.422	-10.6375	91.2531	3.33144	1.98309e-05	1215.14	41.4058	1	12	0.133129	0.000264975	-7.75549e-05	0.0017277	0.00195615	0.000367409	0.00199036	10.6375	-1.50889e-05
1.00006	513.35	106.551	524.291	-11.7258	100.799	3.33144	-0.000212198	1493.6	61.6885	1	12	0.133131	0.000253925	-7.18733e-05	0.00140709	0.00186753	0.000387625	0.00190734	11.7258	1.04896e-06