File: utils/DE_206_3_30.mpt
EC-Lab ASCII FILE
Nb header lines : 60

Potentio Electrochemical Impedance Spectroscopy

Run on channel : 3 (SN 20921)
User :
CE vs. WE compliance from -10 V to 10 V
Electrode connection : standard
Ewe ctrl range : min = -10.00 V, max = 10.00 V
Acquisition started on : 12/03/2020 16:54:21
Technique started on : 12/03/2020 16:54:22
Saved on :
	File : DE_206_3_30.mpr
	Directory : P:\Chemistry\Data\VMP3\Kyler\DOE\DE_206\
	Host : 10.0.4.64
Device : VMP3 (SN 1432)
Address : USB
EC-Lab for windows v11.33 (software)
Internet server v11.32 (firmware)
Command interpretor v11.33 (firmware)
Electrode material :
Initial state :
Electrolyte :
Comments :
Electrode surface area : 0.001 cm²
Characteristic mass : 0.001 g
Equivalent Weight : 0.000 g/eq.
Density : 0.000 g/cm3
Record Analogic IN 1
Cycle Definition : Charge/Discharge alternance
Mode                Single sine
E (V)               0.0000
vs.                 Eoc
tE (h:m:s)          0:00:0.0000
record              0
dI                  1.000
unit dI             mA
dt (s)              0.000
fi                  1.000
unit fi             MHz
ff                  1.000
unit ff             Hz
Nd                  20
Points              per decade
spacing             Logarithmic
Va (mV)             128.0
pw                  0.50
Na                  3
corr                0
E range min (V)     -10.000
E range max (V)     10.000
I Range             Auto
Bandwidth           5
nc cycles           0
goto Ns'            0
nr cycles           0
inc. cycle          1

freq/Hz	Re(Z)/Ohm	-Im(Z)/Ohm	|Z|/Ohm	Phase(Z)/deg	time/s	<Ewe>/V	<I>/mA	Cs/µF	Cp/µF	cycle number	I Range	|Ewe|/V	|I|/A	(Q-Qo)/mA.h	Analog IN 1/V	Re(Y)/Ohm-1	Im(Y)/Ohm-1	|Y|/Ohm-1	Phase(Y)/deg	dq/mA.h
1.00002e+06	112.952	64.755	130.197	-29.8256	1.94949	3.31078	-0.00233195	0.00245775	0.000607971	1	11	0.00409333	3.14395e-05	-8.24353e-07	-0.000237822	0.00666331	0.00382007	0.00768066	29.8256	-8.24353e-07
707950	129.652	61.682	143.577	-25.4427	3.73649	3.31188	-0.000891175	0.00364468	0.000672675	1	11	0.0116282	8.09891e-05	-1.31461e-06	2.67859e-06	0.00628941	0.00299218	0.00696489	25.4427	-7.81314e-08
501206	147.072	60.6087	159.071	-22.3966	5.52349	3.31253	-0.000261369	0.00523925	0.000760598	1	11	0.0258032	0.000162211	-1.27921e-06	-7.74882e-05	0.00581229	0.00239525	0.00628649	22.3966	-1.08981e-07
354810	162.696	58.4943	172.892	-19.7751	7.30849	3.31272	-0.000225767	0.00766851	0.000877785	1	11	0.0471545	0.00027274	-1.47168e-06	2.67859e-06	0.00544287	0.00195688	0.00578396	19.7751	-1.98786e-07
251188	176.291	55.4061	184.793	-17.4473	9.09448	3.31272	-0.000250738	0.0114357	0.00102804	1	11	0.0773452	0.000418551	-2.18422e-06	0.000163012	0.0051625	0.00162251	0.00541146	17.4473	-4.2267e-07
177832	188.122	52.1208	195.209	-15.4858	10.7455	3.31276	-0.000222218	0.0171712	0.00122411	1	11	0.117613	0.000602499	-2.17956e-06	-7.74882e-05	0.00493674	0.00136776	0.00512271	15.4858	3.57518e-07
125909	198.602	49.264	204.621	-13.9312	12.3995	3.31291	-8.317e-05	0.0256586	0.00148728	1	11	0.129689	0.000633802	-2.57136e-06	-0.000317989	0.00474333	0.0011766	0.00488709	13.9312	-3.51531e-07
89129.3	208.057	47.0977	213.321	-12.755	14.1855	3.313	-3.56437e-05	0.037914	0.00184813	1	11	0.129462	0.00060689	-2.39263e-06	0.000163012	0.00457209	0.00103498	0.00468777	12.755	1.01161e-06
63093.8	216.724	45.8637	221.524	-11.9488	15.8365	3.31304	8.7185e-06	0.0550002	0.00235756	1	11	0.14075	0.000635374	-2.27961e-06	-0.000398155	0.00441638	0.000934607	0.00451419	11.9488	-4.42542e-07
44666.7	224.962	45.8428	229.585	-11.5181	17.4855	3.31311	2.51187e-05	0.0777257	0.00309899	1	11	0.130066	0.000566524	-3.5962e-06	0.000163012	0.00426797	0.000869728	0.00435568	11.5181	-6.88857e-07
31621.1	233.122	47.2094	237.854	-11.4481	19.0005	3.31312	4.45027e-05	0.106614	0.00420001	1	11	0.135399	0.000569254	-2.82727e-06	-7.74882e-05	0.00412062	0.000834465	0.00420426	11.4481	-2.25885e-07
22389	241.661	50.0736	246.794	-11.7064	20.5145	3.31312	2.32538e-05	0.141963	0.0058442	1	11	0.132931	0.000538631	-2.51468e-06	-0.000157655	0.00396768	0.000822129	0.00405196	11.7064	5.00799e-08
15847.7	251.019	54.4722	256.861	-12.2436	21.8935	3.31313	3.92834e-05	0.184365	0.0082915	1	11	0.139741	0.000544034	-3.6562e-06	2.67859e-06	0.00380461	0.000825617	0.00389316	12.2436	-4.6818e-07
11217.7	261.74	60.3599	268.61	-12.9859	23.4065	3.31312	-6.73307e-05	0.235054	0.0118692	1	11	0.13117	0.00048833	-3.64397e-06	-0.000398155	0.00362766	0.000836574	0.00372287	12.9859	4.90969e-07
7944	274.233	67.5466	282.429	-13.8372	24.875	3.31316	1.95255e-05	0.296604	0.0169655	1	11	0.132617	0.000469559	-3.27897e-06	-7.74882e-05	0.00343796	0.000846809	0.00354072	13.8372	4.97302e-08
5621.06	289.118	75.8862	298.912	-14.7069	26.7873	3.31318	-0.000137413	0.373112	0.024048	1	11	0.133202	0.000445623	-3.2885e-06	2.67859e-06	0.00323586	0.000849332	0.00334547	14.7069	6.86692e-08
3981.27	306.756	84.7061	318.237	-15.4367	29.0667	3.31319	-0.000122875	0.471936	0.0334359	1	11	0.13336	0.000419059	-2.84086e-06	-0.000478322	0.00302896	0.000836401	0.00314232	15.4367	2.46762e-07
2817.3	327.714	93.3994	340.764	-15.9077	31.347	3.31317	-0.000182892	0.604844	0.0454385	1	11	0.133342	0.000391302	-2.26177e-06	-0.000718822	0.0028222	0.000804334	0.00293458	15.9077	2.2394e-08
1995.64	352.061	100.7	366.18	-15.9622	33.8777	3.31317	-0.000129953	0.791966	0.0598936	1	12	0.135517	0.000370083	-2.76428e-06	0.000243179	0.0026256	0.000751004	0.0027309	15.9622	5.57269e-08
1411.84	379.404	105.204	393.72	-15.498	36.1582	3.31317	-0.000156018	1.07153	0.0765057	1	12	0.134831	0.000342456	-3.31254e-06	2.67859e-06	0.00244753	0.00067867	0.00253988	15.498	-1.42963e-07
1000.32	408.272	105.465	421.674	-14.484	38.4357	3.31316	-0.000187117	1.5086	0.0943704	1	12	0.134229	0.000318324	-3.58821e-06	-7.74882e-05	0.00229613	0.000593137	0.0023715	14.484	-9.87746e-08
707.509	436.691	100.905	448.197	-13.0109	40.7165	3.31316	-0.000154919	2.22933	0.112996	1	12	0.133776	0.000298476	-3.82251e-06	2.67859e-06	0.00217388	0.000502314	0.00223116	13.0109	-2.21672e-07
501.444	461.994	92.199	471.104	-11.2861	42.9882	3.31317	-0.000143789	3.44248	0.131853	1	12	0.133477	0.000283328	-4.26892e-06	-0.000157655	0.00208162	0.000415425	0.00212267	11.2861	2.18974e-08
354.66	482.999	81.0824	489.758	-9.52954	45.2679	3.31317	-0.000183594	5.53455	0.151695	1	12	0.1333	0.000272176	-4.60306e-06	8.28454e-05	0.00201365	0.000338037	0.00204183	9.52954	-2.158e-07
251.044	499.095	69.7497	503.945	-7.9557	47.5369	3.31316	-0.000150036	9.08923	0.174119	1	12	0.133185	0.000264285	-4.53697e-06	0.000403512	0.00196525	0.000274648	0.00198434	7.9557	7.99302e-08
177.781	511.231	59.8979	514.728	-6.68253	49.8272	3.31316	-7.28498e-05	14.9459	0.20239	1	12	0.133123	0.000258628	-4.36799e-06	0.000243179	0.00192957	0.000226076	0.00194277	6.68253	-1.72825e-07
125.846	520.641	52.2403	523.255	-5.72979	52.1024	3.31316	-0.00013872	24.209	0.241301	1	12	0.133088	0.000254346	-4.31061e-06	0.000243179	0.00190156	0.0001908	0.00191111	5.72979	8.50223e-08
89.116	528.321	47.0867	530.415	-5.09304	54.3747	3.31316	-0.000113271	37.9285	0.298903	1	12	0.133068	0.000250875	-4.63829e-06	2.67859e-06	0.00187787	0.000167366	0.00188531	5.09304	-2.02754e-07
63.0823	535.179	44.2188	537.002	-4.7233	56.6708	3.31317	-0.00011784	57.0566	0.386872	1	12	0.133055	0.000247774	-4.67385e-06	0.000403512	0.00185587	0.00015334	0.00186219	4.7233	-1.51737e-07
44.6712	541.752	43.5917	543.503	-4.60036	58.9352	3.31317	-8.94449e-05	81.7313	0.525766	1	12	0.133048	0.000244797	-4.68922e-06	2.67859e-06	0.00183399	0.000147571	0.00183992	4.60036	-1.45633e-07
31.6296	548.618	44.9332	550.455	-4.68222	61.1724	3.31316	-8.67035e-05	111.985	0.746192	1	12	0.133043	0.000241696	-4.90398e-06	-0.000317989	0.00181062	0.000148294	0.00181668	4.68222	2.33005e-08
22.3854	556.083	48.2126	558.17	-4.95516	63.4204	3.31316	-5.83643e-05	147.467	1.10023	1	12	0.133041	0.000238353	-4.91502e-06	0.000163012	0.00178487	0.000154749	0.00179157	4.95516	-7.72869e-07
15.8576	564.416	53.2875	566.926	-5.39341	65.7489	3.31316	-7.62253e-05	188.347	1.66401	1	12	0.133035	0.00023466	-4.39533e-06	0.000243179	0.00175609	0.000165796	0.0017639	5.39341	5.8797e-07
11.2249	574.114	60.2308	577.265	-5.98903	68.1259	3.31315	-0.000112898	235.408	2.56275	1	12	0.133035	0.000230457	-5.52103e-06	8.28454e-05	0.00172285	0.000180746	0.00173231	5.98903	-5.22659e-07
7.93953	585.516	69.2297	589.595	-6.74317	70.6697	3.31316	-0.00012979	289.556	3.99218	1	12	0.133035	0.000225638	-3.55288e-06	-0.000317989	0.00168435	0.000199152	0.00169608	6.74317	2.33635e-06
5.6205	598.717	80.2666	604.074	-7.63579	72.5347	3.31316	0.000176121	352.785	6.22874	1	12	0.133032	0.000220225	-5.53424e-06	0.000243179	0.00164075	0.000219966	0.00165543	7.63579	-1.49443e-06
3.97785	614.772	93.3497	621.819	-8.63409	75.0702	3.31315	-0.000120869	428.606	9.65953	1	12	0.133035	0.000213944	-2.66609e-06	0.000243179	0.00158996	0.000241426	0.00160818	8.63409	3.0372e-06
2.81836	633.506	108.684	642.761	-9.73488	78.5697	3.31317	-9.20985e-05	519.586	14.8556	1	12	0.133035	0.000206974	-2.00445e-06	0.000163012	0.00153339	0.000263067	0.00155579	9.73488	5.6618e-06
1.99706	655.99	126.449	668.066	-10.9105	83.4317	3.31318	-2.12446e-05	630.253	22.579	1	12	0.133033	0.000199132	-1.10993e-06	8.28454e-05	0.0014698	0.000283319	0.00149686	10.9105	5.56752e-06
1.41224	682.389	146.555	697.949	-12.1212	90.2382	3.31318	0.000159173	768.972	33.9052	1	12	0.133034	0.000190607	-7.8983e-06	0.000243179	0.00140083	0.000300853	0.00143277	12.1212	-7.45754e-06
1.00006	713.444	169.917	733.4	-13.3963	99.7832	3.31318	8.23073e-05	936.601	50.2746	1	12	0.133034	0.000181394	-9.54796e-06	8.28454e-05	0.00132641	0.000315905	0.00136351	13.3963	-6.80301e-06