File: utils/DE_206_10_30.mpt
EC-Lab ASCII FILE
Nb header lines : 60

Potentio Electrochemical Impedance Spectroscopy

Run on channel : 10 (SN 41749)
User :
CE vs. WE compliance from -10 V to 10 V
Electrode connection : standard
Ewe ctrl range : min = -5.00 V, max = 5.00 V
Acquisition started on : 12/03/2020 16:53:05
Technique started on : 12/03/2020 16:53:07
Saved on :
	File : DE_206_10_30.mpr
	Directory : P:\Chemistry\Data\VMP3\Kyler\DOE\DE_206\
	Host : 10.0.4.64
Device : VMP3 (SN 1432)
Address : USB
EC-Lab for windows v11.33 (software)
Internet server v11.32 (firmware)
Command interpretor v11.33 (firmware)
Electrode material :
Initial state :
Electrolyte :
Comments :
Electrode surface area : 0.001 cm²
Characteristic mass : 0.001 g
Equivalent Weight : 0.000 g/eq.
Density : 0.000 g/cm3
Record Analogic IN 1
Cycle Definition : Charge/Discharge alternance
Mode                Single sine
E (V)               0.0000
vs.                 Eoc
tE (h:m:s)          0:00:0.0000
record              0
dI                  1.000
unit dI             mA
dt (s)              0.000
fi                  1.000
unit fi             MHz
ff                  1.000
unit ff             Hz
Nd                  20
Points              per decade
spacing             Logarithmic
Va (mV)             128.0
pw                  0.50
Na                  3
corr                0
E range min (V)     -5.000
E range max (V)     5.000
I Range             Auto
Bandwidth           5
nc cycles           0
goto Ns'            0
nr cycles           0
inc. cycle          1

freq/Hz	Re(Z)/Ohm	-Im(Z)/Ohm	|Z|/Ohm	Phase(Z)/deg	time/s	<Ewe>/V	<I>/mA	Cs/µF	Cp/µF	cycle number	I Range	|Ewe|/V	|I|/A	(Q-Qo)/mA.h	Analog IN 1/V	Re(Y)/Ohm-1	Im(Y)/Ohm-1	|Y|/Ohm-1	Phase(Y)/deg	dq/mA.h
1.00002e+06	56.0888	-8.4631	56.7237	8.5805	2.62149	3.30497	0.00159698	-0.0188054	-0.000418613	1	10	0.000137405	2.42235e-06	-1.18166e-06	0.000425134	0.017432	-0.00263027	0.0176293	-8.5805	-1.18166e-06
707950	97.0929	34.114	102.912	-19.3592	4.71148	3.30391	-0.000237552	0.00658998	0.000724139	1	11	0.00297363	2.8895e-05	-8.99388e-07	0.000825979	0.00916766	0.0032211	0.00971707	19.3592	1.04233e-07
501206	108.296	32.8398	113.166	-16.8694	6.49949	3.30369	-0.000354396	0.0096695	0.000814279	1	11	0.0120007	0.000106045	-8.00006e-07	0.000425134	0.00845634	0.0025643	0.00883659	16.8694	-2.05453e-08
354810	117.399	30.8022	121.372	-14.7015	8.28548	3.30365	-0.00033259	0.0145627	0.000937922	1	11	0.0286913	0.000236391	-1.05982e-06	0.000906148	0.00796938	0.00209094	0.00823911	14.7015	-2.15197e-07
251188	124.909	28.0999	128.031	-12.6784	10.0725	3.30354	-0.000532548	0.0225484	0.00108617	1	11	0.0541864	0.000423229	-1.49894e-06	0.000906148	0.00762017	0.00171426	0.00781061	12.6784	4.67623e-07
177832	131.02	25.1168	133.406	-10.8521	11.8595	3.3035	-0.000402461	0.0356325	0.00126307	1	11	0.089095	0.00066785	-7.61627e-07	0.000184627	0.00736188	0.00141129	0.00749593	10.8521	1.39985e-07
125909	136.089	22.2928	137.902	-9.30304	13.3765	3.30348	-0.000489114	0.0567019	0.00148178	1	11	0.133119	0.000965309	2.66335e-07	0.000585472	0.00715612	0.00117225	0.0072515	9.30304	1.00766e-07
89129.3	140.366	19.7136	141.744	-7.99456	15.1615	3.3035	-0.000354188	0.0905804	0.0017521	1	11	0.129697	0.000915013	7.8597e-07	0.000425134	0.00698642	0.000981201	0.00705499	7.99456	1.69706e-06
63093.8	143.925	17.4779	144.983	-6.92395	16.9485	3.30353	-0.000239951	0.144326	0.00209745	1	11	0.129429	0.000892722	-1.86274e-06	0.000665641	0.00684707	0.000831491	0.00689737	6.92395	-1.57808e-06
44666.7	146.922	15.6747	147.755	-6.08972	18.6005	3.30354	-0.000299028	0.227319	0.00255829	1	11	0.130291	0.000881801	-2.06762e-06	0.000505303	0.00672975	0.000717982	0.00676795	6.08972	1.31786e-06
31621.1	149.489	14.3792	150.179	-5.49434	20.1165	3.30356	-0.000151989	0.350032	0.00320894	1	11	0.137123	0.00091307	-1.08718e-06	0.000665641	0.00662815	0.000637557	0.00665874	5.49434	6.43245e-07
22389	151.759	13.611	152.368	-5.12504	21.6325	3.30358	-0.000211811	0.522269	0.00416759	1	11	0.139398	0.000914876	-3.01598e-06	0.000665641	0.0065368	0.000586274	0.00656304	5.12504	-5.30091e-07
15847.7	153.883	13.4041	154.466	-4.97823	23.1485	3.30357	-0.000236224	0.749231	0.00564192	1	11	0.135085	0.000874528	-1.31909e-06	0.00130699	0.0064495	0.000561789	0.00647392	4.97823	-3.85054e-07
11217.7	156.07	13.794	156.678	-5.05087	24.5265	3.30357	-0.000198393	1.02855	0.00797239	1	11	0.140337	0.000895704	-1.67845e-06	0.000665641	0.00635773	0.000561917	0.00638251	5.05087	4.96068e-08
7944	158.414	14.7745	159.101	-5.32829	26.131	3.30361	-0.000123106	1.35603	0.0116935	1	11	0.130869	0.000822554	-1.20951e-06	0.000906148	0.00625815	0.000583667	0.00628531	5.32829	-3.95762e-07
5621.06	161.174	16.325	161.999	-5.78365	28.0433	3.30366	-1.70675e-05	1.7344	0.017613	1	11	0.132103	0.000815456	-9.73852e-07	0.000665641	0.00614146	0.000622057	0.00617289	5.78365	1.58625e-08
3981.27	164.545	18.325	165.562	-6.35471	30.3227	3.30365	-8.37848e-05	2.1815	0.0267251	1	11	0.132668	0.000801317	-7.18041e-07	0.00074581	0.00600292	0.000668531	0.00604003	6.35471	-9.74127e-08
2817.3	168.722	20.6545	169.982	-6.97926	32.6029	3.30365	-8.06169e-05	2.7351	0.0403829	1	11	0.132899	0.000781843	-6.04131e-07	0.000505303	0.0058394	0.000714842	0.00588299	6.97926	-4.546e-07
1995.64	173.817	22.9699	175.328	-7.52803	34.8827	3.30366	6.59926e-06	3.47199	0.059593	1	11	0.132966	0.000758383	-1.08444e-06	0.000825979	0.00565444	0.000747235	0.00570359	7.52803	-2.36026e-07
1411.84	179.878	24.8962	181.592	-7.88003	37.1622	3.30366	-1.25964e-05	4.52796	0.0851086	1	11	0.132956	0.000732166	-1.05796e-06	0.000505303	0.00545484	0.000754984	0.00550684	7.88003	-5.34518e-07
1000.32	186.568	26.056	188.379	-7.95046	39.4397	3.30364	-9.03102e-05	6.10624	0.116822	1	11	0.132933	0.00070567	-6.81681e-07	0.000505303	0.00525743	0.000734249	0.00530846	7.95046	3.64466e-07
707.509	193.461	26.2043	195.227	-7.71379	41.7184	3.30365	-1.37177e-05	8.58449	0.154661	1	11	0.132887	0.00068068	-7.96227e-07	0.000505303	0.00507588	0.000687531	0.00512223	7.71379	-3.78831e-07
501.444	200.041	25.5331	201.664	-7.27384	43.9892	3.30366	-1.78185e-05	12.4307	0.19927	1	11	0.132867	0.000658853	-3.95066e-07	0.00114665	0.00491883	0.000627835	0.00495874	7.27384	4.06404e-07
354.66	205.953	24.341	207.386	-6.74038	46.2679	3.30366	-0.000104663	18.4361	0.253974	1	11	0.132836	0.000640524	-8.24115e-07	0.000585472	0.0047886	0.000565953	0.00482193	6.74038	3.5396e-07
251.044	211.198	23.0688	212.454	-6.23361	48.5369	3.30365	-0.000120506	27.4818	0.324015	1	11	0.132834	0.000625235	-1.8953e-06	0.000585472	0.00467908	0.000511088	0.00470691	6.23361	-7.26423e-07
177.781	215.849	22.0443	216.972	-5.83129	50.8273	3.30365	-0.00012237	40.6105	0.419201	1	11	0.13282	0.000612154	-2.09543e-06	0.000906148	0.00458504	0.000468261	0.00460889	5.83129	1.60086e-09
125.846	220.12	21.3945	221.158	-5.55141	53.1014	3.30365	-0.000162251	59.1125	0.553198	1	11	0.132814	0.000600539	-2.08647e-06	0.000585472	0.00450046	0.00043742	0.00452166	5.55141	4.98669e-07
89.116	224.216	21.1597	225.212	-5.39117	55.3738	3.30366	-0.000123116	84.4023	0.745062	1	11	0.132811	0.000589715	-2.12195e-06	0.000585472	0.00442062	0.000417184	0.00444026	5.39117	-5.70542e-07
63.0823	228.205	21.4048	229.207	-5.35846	57.6698	3.30364	-0.000194491	117.87	1.02794	1	11	0.132801	0.000579396	-1.9851e-06	0.000825979	0.00434381	0.000407433	0.00436287	5.35846	-1.11377e-07
44.6712	232.196	22.1386	233.249	-5.44637	59.9342	3.30365	-0.000155915	160.932	1.44978	1	11	0.132802	0.000569358	-2.78741e-06	0.000665641	0.00426791	0.000406922	0.00428727	5.44637	-2.34658e-07
31.6296	236.311	23.4621	237.473	-5.67002	62.1714	3.30365	-0.000209586	214.467	2.09347	1	11	0.132801	0.000559225	-3.72685e-06	0.000906148	0.00419041	0.000416044	0.00421101	5.67002	-5.31686e-07
22.3854	240.636	25.4639	241.98	-6.04052	64.4195	3.30363	-0.000325315	279.209	3.09188	1	11	0.132802	0.000548813	-3.39045e-06	0.000505303	0.00410963	0.000434878	0.00413258	6.04052	-8.51314e-07
15.8576	245.392	28.2532	247.013	-6.56784	66.7459	3.30365	-5.75182e-05	355.235	4.64743	1	11	0.132794	0.000537601	-3.7931e-06	0.000585472	0.00402181	0.000463052	0.00404838	6.56784	-8.55662e-07
11.2249	250.729	31.8351	252.742	-7.23615	69.1229	3.30362	-0.000253755	445.382	7.06631	1	11	0.132797	0.000525428	-6.13493e-06	0.000825979	0.0039251	0.000498371	0.00395661	7.23615	-3.12919e-06
7.93953	256.936	36.4371	259.507	-8.07151	71.6647	3.30362	-0.000419428	550.151	10.846	1	11	0.132799	0.000511736	-1.85154e-06	0.00074581	0.00381529	0.000541061	0.00385346	8.07151	3.80395e-06
5.6205	264.148	41.8042	267.435	-8.99307	73.7596	3.30361	0.000586972	677.369	16.5511	1	12	0.132798	0.000496563	-5.88827e-06	0.000986317	0.00369326	0.000584497	0.00373922	8.99307	-4.7864e-06
3.97785	272.541	48.2875	276.786	-10.0471	76.2952	3.30362	-4.97684e-05	828.585	25.2185	1	12	0.132801	0.000479796	-1.3599e-05	0.000665641	0.0035575	0.0006303	0.00361291	10.0471	-3.28663e-06
2.81836	282.192	55.8202	287.66	-11.1892	79.7937	3.30364	0.000252205	1011.65	38.0938	1	12	0.132801	0.00046166	-1.57139e-05	0.000344965	0.00341024	0.000674576	0.00347632	11.1892	-9.86933e-06
1.99706	293.544	64.3695	300.518	-12.3683	84.6556	3.30364	1.09562e-05	1238.08	56.8024	1	12	0.132799	0.000441899	-1.28409e-05	0.00074581	0.00325035	0.000712751	0.00332758	12.3683	-2.87185e-06
1.41224	306.573	74.3531	315.461	-13.6327	91.4611	3.30365	-0.000231979	1515.7	84.2014	1	12	0.1328	0.000420973	3.8281e-06	0.000825979	0.00308066	0.000747149	0.00316996	13.6327	2.426e-05
1.00006	321.851	85.8466	333.103	-14.9347	101.007	3.30365	0.000274167	1853.83	123.128	1	12	0.132798	0.00039867	-7.19719e-06	0.000825979	0.00290066	0.000773686	0.00300207	14.9347	-3.91817e-06