File: utils/DE_206_11_30.mpt
EC-Lab ASCII FILE
Nb header lines : 60

Potentio Electrochemical Impedance Spectroscopy

Run on channel : 11 (SN 41750)
User :
CE vs. WE compliance from -10 V to 10 V
Electrode connection : standard
Ewe ctrl range : min = -5.00 V, max = 5.00 V
Acquisition started on : 12/03/2020 16:52:56
Technique started on : 12/03/2020 16:52:57
Saved on :
	File : DE_206_11_30.mpr
	Directory : P:\Chemistry\Data\VMP3\Kyler\DOE\DE_206\
	Host : 10.0.4.64
Device : VMP3 (SN 1432)
Address : USB
EC-Lab for windows v11.33 (software)
Internet server v11.32 (firmware)
Command interpretor v11.33 (firmware)
Electrode material :
Initial state :
Electrolyte :
Comments :
Electrode surface area : 0.001 cm²
Characteristic mass : 0.001 g
Equivalent Weight : 0.000 g/eq.
Density : 0.000 g/cm3
Record Analogic IN 1
Cycle Definition : Charge/Discharge alternance
Mode                Single sine
E (V)               0.0000
vs.                 Eoc
tE (h:m:s)          0:00:0.0000
record              0
dI                  1.000
unit dI             mA
dt (s)              0.000
fi                  1.000
unit fi             MHz
ff                  1.000
unit ff             Hz
Nd                  20
Points              per decade
spacing             Logarithmic
Va (mV)             128.0
pw                  0.50
Na                  3
corr                0
E range min (V)     -5.000
E range max (V)     5.000
I Range             Auto
Bandwidth           5
nc cycles           0
goto Ns'            0
nr cycles           0
inc. cycle          1

freq/Hz	Re(Z)/Ohm	-Im(Z)/Ohm	|Z|/Ohm	Phase(Z)/deg	time/s	<Ewe>/V	<I>/mA	Cs/µF	Cp/µF	cycle number	I Range	|Ewe|/V	|I|/A	(Q-Qo)/mA.h	Analog IN 1/V	Re(Y)/Ohm-1	Im(Y)/Ohm-1	|Y|/Ohm-1	Phase(Y)/deg	dq/mA.h
1.00002e+06	82.9698	34.6845	89.9277	-22.6868	1.64548	3.3077	0.00215457	0.00458856	0.000682591	1	11	0.000492373	5.47521e-06	7.45936e-07	0.000781304	0.0102597	0.00428892	0.01112	22.6868	7.45936e-07
707950	91.8742	29.5786	96.5182	-17.8458	3.43247	3.30642	-0.0015335	0.00760047	0.0007138	1	11	0.00188065	1.94849e-05	3.28091e-07	0.000220421	0.00986223	0.00317511	0.0103607	17.8458	-2.97451e-07
501206	100.497	27.0134	104.064	-15.0455	5.22249	3.30615	-0.00192585	0.011755	0.000792107	1	11	0.0103664	9.96156e-05	-6.13071e-07	6.01684e-05	0.00928007	0.00249448	0.00960948	15.0455	-2.62537e-07
354810	107.404	24.562	110.177	-12.8813	7.00948	3.30605	-0.00207029	0.0182625	0.000907629	1	11	0.026909	0.000244235	-2.16035e-06	0.000701178	0.00884791	0.00202341	0.00907633	12.8813	-6.16276e-07
251188	112.81	21.9106	114.918	-10.9914	8.79649	3.30589	-0.00239032	0.028918	0.00105123	1	11	0.0524739	0.000456619	-3.43361e-06	0.00102168	0.0085422	0.00165911	0.00870183	10.9914	3.81999e-07
177832	117.192	19.3927	118.785	-9.39608	10.5835	3.30586	-0.00220877	0.04615	0.00123005	1	11	0.0874941	0.000736573	-2.25426e-06	0.00086143	0.00830559	0.0013744	0.00841854	9.39608	1.11533e-06
125909	120.834	17.1401	122.043	-8.07347	12.0975	3.30585	-0.00212508	0.0737479	0.00145461	1	11	0.13156	0.00107798	-3.89649e-06	0.000540925	0.00811261	0.00115076	0.00819382	8.07347	5.03387e-07
89129.3	123.944	15.1952	124.872	-6.98945	13.8845	3.3059	-0.00202163	0.117515	0.00174011	1	11	0.12967	0.00103843	-2.03474e-06	0.000540925	0.00794869	0.000974491	0.0080082	6.98945	1.99863e-07
63093.8	126.574	13.5897	127.301	-6.12813	15.6705	3.30597	-0.00168129	0.185619	0.00211533	1	11	0.129474	0.00101707	-2.89862e-06	0.000140295	0.00781049	0.000838579	0.00785538	6.12813	2.17101e-07
44666.7	128.805	12.37	129.398	-5.48564	17.3205	3.306	-0.00172341	0.28805	0.00263239	1	11	0.130385	0.00100763	-1.01832e-06	0.000701178	0.0076927	0.000738778	0.0077281	5.48564	1.03175e-06
31621.1	130.752	11.5861	131.264	-5.06382	18.8345	3.30602	-0.00171801	0.434417	0.00338444	1	11	0.13753	0.00104774	-3.11133e-06	0.000140295	0.00758851	0.000672426	0.00761824	5.06382	5.82794e-07
22389	132.524	11.2935	133.004	-4.87088	20.3485	3.30603	-0.00163208	0.629444	0.00453817	1	11	0.140303	0.00105488	-1.9242e-06	0.000300547	0.0074914	0.000638404	0.00751855	4.87088	-2.62483e-07
15847.7	134.259	11.5119	134.752	-4.90079	21.8635	3.30604	-0.00171856	0.87238	0.00636698	1	11	0.135882	0.00100839	-5.02738e-06	0.000540925	0.00739392	0.000633985	0.00742105	4.90079	-4.96618e-07
11217.7	136.117	12.2734	136.67	-5.15228	23.3795	3.30605	-0.00173273	1.15599	0.00932256	1	11	0.129338	0.000946357	-7.09405e-06	0.00102168	0.00728735	0.000657082	0.00731692	5.15228	-1.3378e-06
7944	138.213	13.5773	138.878	-5.61042	24.847	3.30609	-0.00155454	1.4756	0.0141035	1	11	0.13216	0.000951625	-6.61621e-06	0.00118193	0.00716607	0.000703956	0.00720057	5.61042	6.47406e-07
5621.06	140.798	15.416	141.64	-6.24843	26.7593	3.30612	-0.00140562	1.83667	0.0217573	1	11	0.133551	0.00094289	-6.30062e-06	0.00086143	0.00701823	0.000768427	0.00706017	6.24843	3.46604e-07
3981.27	144.037	17.6793	145.118	-6.99755	29.0377	3.30614	-0.0013525	2.26117	0.0335599	1	11	0.134176	0.000924602	-7.31929e-06	0.000781304	0.00683961	0.000839503	0.00689094	6.99755	2.94781e-07
2817.3	148.148	20.2014	149.519	-7.76494	31.3179	3.30614	-0.00135846	2.79645	0.0510479	1	11	0.134411	0.000898956	-6.57566e-06	0.00086143	0.00662681	0.000903629	0.00668813	7.76494	3.12317e-07
1995.64	153.25	22.6135	154.91	-8.39392	33.5977	3.30614	-0.00135306	3.52672	0.0751531	1	11	0.134466	0.000868025	-7.89888e-06	0.000781304	0.00638621	0.000942342	0.00645536	8.39392	2.75692e-07
1411.84	159.316	24.5968	161.203	-8.77662	35.8792	3.30613	-0.00143134	4.58307	0.106701	1	11	0.134442	0.000833993	-9.2263e-06	0.000941556	0.00613071	0.000946523	0.00620335	8.77662	-1.27765e-07
1000.32	166.027	25.7052	168.005	-8.80096	38.1567	3.30613	-0.00151652	6.18956	0.144896	1	11	0.134399	0.000799967	-1.01534e-05	0.000220421	0.00588211	0.000910699	0.00595219	8.80096	-2.29481e-07
707.509	172.879	25.7759	174.79	-8.4802	40.4375	3.30614	-0.00146993	8.72718	0.189788	1	11	0.134339	0.000768575	-1.09688e-05	0.000300547	0.0056586	0.000843684	0.00572115	8.4802	-5.8509e-07
501.444	179.315	24.9604	181.044	-7.92455	42.7092	3.30614	-0.0015072	12.7159	0.241701	1	11	0.134299	0.000741803	-1.2267e-05	0.000781304	0.00547076	0.00076152	0.00552351	7.92455	1.36348e-07
354.66	185.067	23.6661	186.574	-7.28735	44.988	3.30614	-0.00152845	18.9619	0.305094	1	11	0.134275	0.00071969	-1.35013e-05	0.000621051	0.00531652	0.000679869	0.00535981	7.28735	1.47459e-07
251.044	190.069	22.3568	191.379	-6.70857	47.2559	3.30614	-0.00153032	28.357	0.386982	1	11	0.134252	0.000701496	-1.60576e-05	0.000380673	0.00518946	0.000610409	0.00522524	6.70857	-8.14229e-07
177.781	194.558	21.3164	195.722	-6.25257	49.5463	3.30613	-0.00158437	41.9973	0.49816	1	11	0.134254	0.000685945	-1.73551e-05	0.000621051	0.0050789	0.000556461	0.00510929	6.25257	-9.36913e-07
125.846	198.722	20.6074	199.788	-5.92039	51.8204	3.30613	-0.00153722	61.3702	0.652931	1	11	0.134235	0.000671886	-1.80108e-05	0.000701178	0.00497861	0.00051628	0.00500531	5.92039	-5.92593e-08
89.116	202.704	20.2381	203.712	-5.70153	54.0918	3.30613	-0.00160655	88.2461	0.870962	1	11	0.13423	0.000658918	-1.93618e-05	0.00102168	0.0048846	0.00048768	0.00490889	5.70153	-4.47931e-07
63.0823	206.569	20.2136	207.556	-5.58882	56.3868	3.30613	-0.00159667	124.816	1.18382	1	11	0.134229	0.000646712	-2.04224e-05	0.000781304	0.00479508	0.000469217	0.00481798	5.58882	-5.81958e-07
44.6712	210.315	20.6627	211.327	-5.6111	58.6512	3.30613	-0.0015827	172.427	1.64842	1	11	0.134231	0.00063518	-2.04876e-05	0.000540925	0.00470932	0.000462674	0.00473199	5.6111	-4.4211e-07
31.6296	214.11	21.6189	215.198	-5.76567	60.8885	3.30613	-0.00155138	232.752	2.34899	1	11	0.134223	0.000623716	-2.08673e-05	0.000540925	0.00462337	0.000466826	0.00464687	5.76567	3.77221e-07
22.3854	218.073	23.2677	219.311	-6.09024	63.1354	3.30613	-0.00143564	305.564	3.43945	1	11	0.134221	0.000612013	-2.22661e-05	0.000540925	0.00453401	0.000483764	0.00455974	6.09024	-9.83806e-07
15.8576	222.333	25.6031	223.803	-6.56903	65.4629	3.30614	-0.00173144	392.005	5.13032	1	11	0.134221	0.000599728	-2.13824e-05	0.000701178	0.00443889	0.000511165	0.00446822	6.56903	2.56932e-06
11.2249	227.188	28.7916	229.005	-7.2226	67.8399	3.30613	-0.00173367	492.463	7.7842	1	11	0.134224	0.000586118	-2.22464e-05	0.000941556	0.00433206	0.000549003	0.00436671	7.2226	3.0743e-06
7.93953	232.729	32.7549	235.023	-8.01132	70.3827	3.30612	-0.00180935	611.997	11.8872	1	11	0.134221	0.000571096	-2.46576e-05	0.00102168	0.00421337	0.000593	0.0042549	8.01132	3.5684e-07
5.6205	239.186	37.4976	242.107	-8.90984	72.2477	3.30613	-0.00261361	755.165	18.1148	1	11	0.134218	0.000554376	-3.047e-05	0.000701178	0.00408056	0.000639717	0.0041304	8.90984	-2.04054e-06
3.97785	246.611	43.266	250.378	-9.95083	74.7832	3.30612	-0.00152538	924.751	27.6138	1	11	0.134221	0.000536075	-2.55234e-05	0.000540925	0.00393388	0.000690168	0.00399396	9.95083	-4.2135e-06
2.81836	255.382	49.9984	260.231	-11.0772	78.2816	3.30612	-0.00169812	1129.45	41.6929	1	11	0.134217	0.000515763	-2.49332e-05	0.000540925	0.00377115	0.00073831	0.00384274	11.0772	-2.83035e-07
1.99706	265.428	57.7115	271.63	-12.2668	83.6927	3.30614	0.000100494	1380.91	62.3357	1	12	0.134219	0.000494126	-3.20456e-05	0.000540925	0.00359743	0.000782183	0.00368148	12.2668	-1.05218e-05
1.41224	277.1	66.8163	285.042	-13.5568	90.4991	3.30613	0.000255127	1686.67	92.6781	1	12	0.134219	0.000470874	-4.93018e-05	0.000540925	0.00341051	0.000822366	0.00350826	13.5568	-2.80905e-05
1.00006	290.78	77.2182	300.858	-14.872	100.044	3.30614	-0.000255013	2060.97	135.765	1	12	0.134222	0.000446131	-3.05989e-05	0.000621051	0.00321248	0.000853093	0.00332383	14.872	1.3578e-05