File: utils/DE_206_9_30.mpt
EC-Lab ASCII FILE
Nb header lines : 60

Potentio Electrochemical Impedance Spectroscopy

Run on channel : 9 (SN 41381)
User :
CE vs. WE compliance from -10 V to 10 V
Electrode connection : standard
Ewe ctrl range : min = -5.00 V, max = 5.00 V
Acquisition started on : 12/03/2020 16:53:14
Technique started on : 12/03/2020 16:53:15
Saved on :
	File : DE_206_9_30.mpr
	Directory : P:\Chemistry\Data\VMP3\Kyler\DOE\DE_206\
	Host : 10.0.4.64
Device : VMP3 (SN 1432)
Address : USB
EC-Lab for windows v11.33 (software)
Internet server v11.32 (firmware)
Command interpretor v11.33 (firmware)
Electrode material :
Initial state :
Electrolyte :
Comments :
Electrode surface area : 0.001 cm²
Characteristic mass : 0.001 g
Equivalent Weight : 0.000 g/eq.
Density : 0.000 g/cm3
Record Analogic IN 1
Cycle Definition : Charge/Discharge alternance
Mode                Single sine
E (V)               0.0000
vs.                 Eoc
tE (h:m:s)          0:00:0.0000
record              0
dI                  1.000
unit dI             mA
dt (s)              0.000
fi                  1.000
unit fi             MHz
ff                  1.000
unit ff             Hz
Nd                  20
Points              per decade
spacing             Logarithmic
Va (mV)             128.0
pw                  0.50
Na                  3
corr                0
E range min (V)     -5.000
E range max (V)     5.000
I Range             Auto
Bandwidth           5
nc cycles           0
goto Ns'            0
nr cycles           0
inc. cycle          1

freq/Hz	Re(Z)/Ohm	-Im(Z)/Ohm	|Z|/Ohm	Phase(Z)/deg	time/s	<Ewe>/V	<I>/mA	Cs/µF	Cp/µF	cycle number	I Range	|Ewe|/V	|I|/A	(Q-Qo)/mA.h	Analog IN 1/V	Re(Y)/Ohm-1	Im(Y)/Ohm-1	|Y|/Ohm-1	Phase(Y)/deg	dq/mA.h
1.00002e+06	134.425	70.2836	151.69	-27.6027	1.64448	3.34021	-0.000129606	0.00226442	0.00048613	1	11	0.000475292	3.13331e-06	4.0743e-07	0.00162838	0.00584206	0.0030545	0.00659239	27.6027	4.0743e-07
707950	155.439	66.8085	169.188	-23.2583	3.43048	3.33931	-0.0021682	0.00336501	0.0005247	1	11	0.00359056	2.12223e-05	-5.92724e-07	0.00186904	0.00543026	0.00233396	0.00591059	23.2583	-4.40752e-07
501206	174.646	63.581	185.859	-20.0044	5.21849	3.33914	-0.00261433	0.00499432	0.000584472	1	11	0.0157666	8.48309e-05	-1.60656e-06	0.00162838	0.0050558	0.0018406	0.00538042	20.0044	-4.16607e-07
354810	191.154	58.9337	200.032	-17.1348	7.00448	3.33908	-0.00287607	0.00761133	0.000660675	1	11	0.0373974	0.000186957	-3.14266e-06	0.00146794	0.0047773	0.00147287	0.00499919	17.1348	-7.05655e-07
251188	204.696	53.207	211.498	-14.5706	8.79248	3.33896	-0.00312364	0.0119084	0.000753664	1	11	0.0689927	0.00032621	-3.27821e-06	0.00138772	0.00457611	0.00118948	0.00472818	14.5706	-9.19104e-08
177832	215.809	47.3828	220.949	-12.3833	10.5795	3.33891	-0.00322021	0.0188882	0.000868651	1	11	0.110791	0.000501431	-4.70016e-06	0.0017086	0.00442063	0.000970588	0.00452592	12.3833	-3.33809e-08
125909	225.163	42.0095	229.048	-10.5684	12.2325	3.33892	-0.0032189	0.0300895	0.00101218	1	11	0.129789	0.000566643	-5.34832e-06	0.00114707	0.00429184	0.000800746	0.0043659	10.5684	-4.55157e-08
89129.3	233.06	37.1637	236.004	-9.06012	14.0175	3.33894	-0.0032107	0.0480485	0.00119146	1	11	0.129607	0.000549174	-8.98314e-06	0.0013075	0.00418435	0.000667238	0.00423722	9.06012	-1.71131e-06
63093.8	239.692	32.9843	241.951	-7.83532	15.6705	3.33897	-0.00313221	0.0764762	0.0014213	1	11	0.14061	0.000581151	-9.53322e-06	0.00122728	0.00409448	0.000563446	0.00413307	7.83532	-2.79262e-07
44666.7	245.305	29.6287	247.088	-6.88698	17.3205	3.33899	-0.00315887	0.120261	0.0017292	1	11	0.130077	0.000526438	-1.15153e-05	0.00146794	0.00401793	0.000485297	0.00404714	6.88698	-7.92109e-07
31621.1	250.109	27.2061	251.585	-6.20805	18.8345	3.33899	-0.00320436	0.185002	0.00216342	1	11	0.13508	0.000536915	-1.43647e-05	0.00106685	0.00395149	0.000429831	0.0039748	6.20805	-4.09533e-07
22389	254.427	25.7922	255.731	-5.7885	20.3485	3.339	-0.0031956	0.275611	0.00280353	1	11	0.132866	0.000519553	-1.69572e-05	0.00146794	0.00389042	0.000394385	0.00391036	5.7885	-9.03174e-07
15847.7	258.481	25.3976	259.726	-5.61169	21.7275	3.33901	-0.00311879	0.395423	0.00378107	1	11	0.139744	0.000538043	-1.76595e-05	0.0013075	0.00383176	0.000376496	0.00385021	5.61169	6.43541e-08
11217.7	262.615	26.1107	263.91	-5.67801	23.2435	3.339	-0.0032918	0.543373	0.00531892	1	11	0.131429	0.000498007	-1.95056e-05	0.00162838	0.00377059	0.000374893	0.00378918	5.67801	-7.30874e-07
7944	267.083	27.8398	268.53	-5.95083	24.712	3.33904	-0.00313855	0.719639	0.00773503	1	11	0.133177	0.000495951	-2.0971e-05	0.0021097	0.00370391	0.000386083	0.00372398	5.95083	-8.44373e-07
5621.06	272.214	30.6267	273.931	-6.41934	26.6243	3.33907	-0.00321051	0.924489	0.0115563	1	11	0.134038	0.000489313	-2.28545e-05	0.00194926	0.00362766	0.000408147	0.00365055	6.41934	-1.08842e-06
3981.27	278.386	34.2924	280.49	-7.0225	28.9047	3.33908	-0.00324538	1.16574	0.0174246	1	11	0.134428	0.000479261	-2.49922e-05	0.00194926	0.00353845	0.000435877	0.00356519	7.0225	-3.24925e-07
2817.3	286.034	38.6092	288.628	-7.68738	31.184	3.33906	-0.00328266	1.46318	0.0261819	1	11	0.134595	0.000466325	-2.67167e-05	0.00194926	0.00343352	0.000463461	0.00346466	7.68738	-6.20368e-07
1995.64	295.437	43.062	298.559	-8.29286	33.4637	3.33907	-0.00329459	1.85201	0.0385276	1	11	0.134646	0.000450985	-2.82938e-05	0.00146794	0.0033144	0.000483097	0.00334942	8.29286	-4.7216e-07
1411.84	306.841	46.9088	310.406	-8.69188	35.7452	3.33907	-0.0033783	2.40315	0.0548819	1	11	0.13465	0.000433787	-3.10622e-05	0.0017086	0.00318459	0.000486848	0.00322158	8.69188	-1.06786e-06
1000.32	319.834	49.2457	323.603	-8.75324	38.2737	3.33906	-0.000134416	3.23082	0.0748211	1	12	0.135308	0.000418129	-3.34427e-05	0.00146794	0.00305421	0.000470265	0.0030902	8.75324	-8.82504e-07
707.509	333.618	49.27	337.237	-8.40094	40.5535	3.33906	-0.000151154	4.56567	0.0974542	1	12	0.135103	0.000400618	-3.34991e-05	0.00154816	0.00293346	0.000433224	0.00296527	8.40094	1.3644e-07
501.444	346.836	46.8224	349.982	-7.68838	42.8252	3.33906	-0.000131099	6.77866	0.121328	1	12	0.13492	0.000385505	-3.33247e-05	0.00202948	0.0028316	0.000382263	0.00285729	7.68838	-2.40971e-07
354.66	358.421	42.4881	360.93	-6.76044	45.105	3.33906	-0.000238257	10.5619	0.146362	1	12	0.13478	0.000373425	-3.29265e-05	0.00122728	0.00275135	0.000326153	0.00277062	6.76044	1.98675e-07
251.044	367.691	37.301	369.578	-5.79265	47.3739	3.33905	-0.000197213	16.9961	0.173132	1	12	0.134692	0.000364449	-3.3451e-05	0.00146794	0.00269197	0.000273092	0.00270579	5.79265	-3.24815e-07
177.781	374.726	32.3336	376.118	-4.93161	49.6643	3.33905	-0.000170876	27.6872	0.204616	1	12	0.134638	0.000357967	-3.35357e-05	0.00154816	0.0026489	0.000228563	0.00265874	4.93161	1.88874e-07
125.846	380.075	28.3289	381.129	-4.26266	51.9384	3.33906	-0.000225601	44.6428	0.246642	1	12	0.134602	0.000353165	-3.37145e-05	0.00186904	0.00261652	0.000195023	0.00262378	4.26266	2.0842e-07
89.116	384.331	25.5591	385.18	-3.80473	54.2108	3.33905	-0.000226141	69.8745	0.307668	1	12	0.134584	0.000349404	-3.35234e-05	0.00186904	0.00259046	0.000172273	0.00259619	3.80473	-2.2423e-07
63.0823	388.079	24.1267	388.828	-3.55747	56.5068	3.33906	-0.000237773	104.572	0.402619	1	12	0.134568	0.000346085	-3.35302e-05	0.00178882	0.00256688	0.000159581	0.00257183	3.55747	2.27306e-08
44.6712	391.643	23.8649	392.37	-3.48702	58.7722	3.33906	-0.000186757	149.291	0.552282	1	12	0.134567	0.00034296	-3.40962e-05	0.00178882	0.0025439	0.000155013	0.00254862	3.48702	1.78921e-08
31.6296	395.436	24.7584	396.211	-3.58264	61.0094	3.33906	-0.000177046	203.238	0.793594	1	12	0.134562	0.000339623	-3.45339e-05	0.0013075	0.00251898	0.000157714	0.00252391	3.58264	-4.08317e-07
22.3854	399.522	26.6323	400.409	-3.81371	63.2564	3.33904	-0.000294399	266.961	1.18102	1	12	0.134548	0.000336027	-3.44789e-05	0.0013075	0.00249192	0.000166112	0.00249745	3.81371	3.97053e-07
15.8576	404.281	29.4424	405.352	-4.1653	65.5839	3.33906	-0.000145359	340.887	1.79842	1	12	0.134556	0.000331949	-3.56797e-05	0.0013075	0.00246048	0.000179188	0.00246699	4.1653	-1.67298e-06
11.2249	409.84	33.2177	411.184	-4.63372	67.9609	3.33905	-0.00012918	426.844	2.78572	1	12	0.134556	0.000327241	-3.59114e-05	0.00218992	0.00242405	0.000196471	0.002432	4.63372	-1.90221e-06
7.93953	416.313	37.8836	418.033	-5.19948	70.5047	3.33906	-0.000159022	529.144	4.34566	1	12	0.134555	0.000321877	-3.56136e-05	0.00178882	0.00238231	0.000216786	0.00239216	5.19948	-8.51166e-07
5.6205	423.839	43.3329	426.049	-5.83758	72.3696	3.33904	0.000158779	653.472	6.75997	1	12	0.134551	0.000315811	-3.27666e-05	0.00186904	0.00233498	0.000238726	0.00234715	5.83758	1.04129e-06
3.97785	432.598	49.944	435.471	-6.58572	74.9052	3.33906	-0.000346581	801.103	10.5375	1	12	0.134558	0.000308994	-3.67066e-05	0.00194926	0.00228121	0.000263369	0.00229636	6.58572	1.8323e-06
2.81836	442.934	57.5566	446.658	-7.40375	78.4036	3.33906	-0.000278276	981.135	16.2918	1	12	0.134553	0.000301244	-3.81774e-05	0.00186904	0.00222018	0.000288499	0.00223885	7.40375	-6.959e-07
1.99706	454.718	66.1742	459.508	-8.28002	83.2657	3.33906	-0.000361241	1204.32	24.9765	1	12	0.134549	0.000292812	-3.36011e-05	0.00178882	0.00215356	0.000313403	0.00217624	8.28002	7.28985e-06
1.41224	468.499	76.3076	474.672	-9.25092	90.0712	3.33907	-0.000304216	1476.88	38.1673	1	12	0.134551	0.000283461	-2.75351e-05	0.00162838	0.00207932	0.000338672	0.00210672	9.25092	1.42739e-05
1.00006	484.337	87.5455	492.185	-10.2458	99.6162	3.33906	-3.13163e-06	1817.85	57.5135	1	12	0.134548	0.00027337	-4.56108e-05	0.00162838	0.00199936	0.000361391	0.00203176	10.2458	-1.92436e-05