File: utils/DE_206_5_30.mpt
EC-Lab ASCII FILE
Nb header lines : 60

Potentio Electrochemical Impedance Spectroscopy

Run on channel : 5 (SN 41380)
User :
CE vs. WE compliance from -10 V to 10 V
Electrode connection : standard
Ewe ctrl range : min = -10.00 V, max = 10.00 V
Acquisition started on : 12/03/2020 16:53:50
Technique started on : 12/03/2020 16:53:51
Saved on :
	File : DE_206_5_30.mpr
	Directory : P:\Chemistry\Data\VMP3\Kyler\DOE\DE_206\
	Host : 10.0.4.64
Device : VMP3 (SN 1432)
Address : USB
EC-Lab for windows v11.33 (software)
Internet server v11.32 (firmware)
Command interpretor v11.33 (firmware)
Electrode material :
Initial state :
Electrolyte :
Comments :
Electrode surface area : 0.001 cm²
Characteristic mass : 0.001 g
Equivalent Weight : 0.000 g/eq.
Density : 0.000 g/cm3
Record Analogic IN 1
Cycle Definition : Charge/Discharge alternance
Mode                Single sine
E (V)               0.0000
vs.                 Eoc
tE (h:m:s)          0:00:0.0000
record              0
dI                  1.000
unit dI             mA
dt (s)              0.000
fi                  1.000
unit fi             MHz
ff                  1.000
unit ff             Hz
Nd                  20
Points              per decade
spacing             Logarithmic
Va (mV)             128.0
pw                  0.50
Na                  3
corr                0
E range min (V)     -10.000
E range max (V)     10.000
I Range             Auto
Bandwidth           5
nc cycles           0
goto Ns'            0
nr cycles           0
inc. cycle          1

freq/Hz	Re(Z)/Ohm	-Im(Z)/Ohm	|Z|/Ohm	Phase(Z)/deg	time/s	<Ewe>/V	<I>/mA	Cs/µF	Cp/µF	cycle number	I Range	|Ewe|/V	|I|/A	(Q-Qo)/mA.h	Analog IN 1/V	Re(Y)/Ohm-1	Im(Y)/Ohm-1	|Y|/Ohm-1	Phase(Y)/deg	dq/mA.h
1.00002e+06	67.4491	19.2264	70.1358	-15.9102	1.64547	3.32185	0.00223738	0.00827779	0.000622057	1	11	0.000418734	5.97033e-06	1.00102e-06	0.000865779	0.0137119	0.00390857	0.0142581	15.9102	1.00102e-06
707950	74.7696	16.5965	76.5894	-12.515	3.4325	3.32076	-0.00227176	0.0135457	0.000636058	1	11	0.00133418	1.74198e-05	5.96232e-08	0.00134651	0.0127464	0.0028293	0.0130566	12.515	-5.55211e-07
501206	81.1419	15.9042	82.6859	-11.0896	5.22149	3.32056	-0.00287368	0.019966	0.000738673	1	11	0.00261074	3.15742e-05	-1.06764e-06	0.00206761	0.0118681	0.00232621	0.012094	11.0896	-7.48865e-07
354810	86.0167	14.9934	87.3137	-9.88774	7.00748	3.32047	-0.0032732	0.0299175	0.000882183	1	11	0.0156988	0.000179797	-2.24831e-06	0.00134651	0.0112828	0.00196668	0.011453	9.88774	-4.38351e-07
251188	89.8355	13.8656	90.8992	-8.77405	8.79448	3.32033	-0.0035764	0.0456965	0.00106326	1	11	0.0387956	0.000426799	-4.9311e-06	0.00134651	0.0108725	0.0016781	0.0110012	8.77405	-1.08954e-06
177832	92.8801	12.6882	93.7428	-7.77894	10.5815	3.32027	-0.00367497	0.0705359	0.00129222	1	11	0.0716105	0.000763904	-4.10962e-06	0.00134651	0.0105693	0.00144386	0.0106675	7.77894	2.8357e-07
125909	95.4716	11.6021	96.174	-6.92882	12.3675	3.32027	-0.00351757	0.10895	0.00158556	1	11	0.113091	0.0011759	-6.0471e-06	0.00126639	0.0103219	0.00125435	0.0103978	6.92882	5.25558e-07
89129.3	97.7138	10.6464	98.292	-6.21811	14.0185	3.32031	-0.00310459	0.167725	0.00196772	1	11	0.12977	0.00132025	-7.30026e-06	0.00102602	0.0101139	0.00110196	0.0101738	6.21811	-1.5908e-06
63093.8	99.6532	9.86677	100.14	-5.65449	15.8065	3.32033	-0.00312008	0.255657	0.00248193	1	11	0.129552	0.00129371	-1.10371e-05	0.00118627	0.00993739	0.000983912	0.00998597	5.65449	5.64455e-07
44666.7	101.346	9.35426	101.777	-5.27346	17.4575	3.32037	-0.00283425	0.380914	0.0032177	1	11	0.140714	0.00138257	-1.496e-05	0.00142663	0.00978381	0.000903045	0.00982539	5.27346	-1.04689e-06
31621.1	102.883	9.15606	103.289	-5.08564	19.1085	3.32037	-0.00286954	0.549711	0.00431956	1	11	0.130109	0.00125965	-1.58724e-05	0.001667	0.00964342	0.000858216	0.00968153	5.08564	1.02462e-06
22389	104.358	9.31637	104.773	-5.10144	20.6235	3.32038	-0.0029754	0.763024	0.00603296	1	11	0.135251	0.00129089	-1.80784e-05	0.000785657	0.00950661	0.000848683	0.00954442	5.10144	5.88098e-07
15847.7	105.89	9.88414	106.35	-5.33274	22.1375	3.32038	-0.00295412	1.01605	0.00877639	1	11	0.133003	0.00125062	-1.74404e-05	0.00134651	0.00936219	0.0008739	0.00940289	5.33274	5.36636e-08
11217.7	107.596	10.8664	108.143	-5.76691	23.5145	3.32038	-0.00305064	1.30566	0.0131827	1	11	0.139998	0.00129456	-1.96765e-05	0.00102602	0.00920021	0.000929155	0.00924701	5.76691	-1.01791e-06
7944	109.62	12.2618	110.303	-6.38246	25.118	3.32044	-0.0025081	1.6339	0.0201911	1	11	0.131382	0.0011911	-2.16863e-05	0.00126639	0.00900972	0.00100781	0.00906591	6.38246	2.92029e-07
5621.06	112.138	14.0398	113.013	-7.13637	27.0303	3.32047	-0.00232793	2.0167	0.0311246	1	11	0.133004	0.00117689	-2.38838e-05	0.00174712	0.00877996	0.00109926	0.0088485	7.13637	-8.824e-07
3981.27	115.319	16.0662	116.433	-7.93134	29.3097	3.3205	-0.00226464	2.4882	0.047376	1	11	0.133708	0.00114837	-2.59049e-05	0.00118627	0.00850647	0.00118511	0.00858863	7.93134	-1.01406e-06
2817.3	119.354	18.1255	120.722	-8.63517	31.588	3.32048	-0.00241998	3.11671	0.0702591	1	11	0.133955	0.00110961	-2.50542e-05	0.00102602	0.00818956	0.0012437	0.00828346	8.63517	1.25912e-07
1995.64	124.238	19.8615	125.816	-9.0828	33.8677	3.3205	-0.00238245	4.01538	0.100065	1	11	0.133967	0.00106479	-2.74443e-05	0.00134651	0.00784848	0.00125471	0.00794814	9.0828	-1.03279e-07
1411.84	129.848	20.8804	131.516	-9.13532	36.1472	3.32049	-0.00249111	5.3988	0.136087	1	11	0.133906	0.00101818	-2.90562e-05	0.001667	0.00750719	0.0012072	0.00760363	9.13532	3.32324e-07
1000.32	135.711	20.8336	137.301	-8.72759	38.4247	3.3205	-0.00239925	7.63688	0.175832	1	11	0.133827	0.000974699	-2.92812e-05	0.00126639	0.00719892	0.00110514	0.00728325	8.72759	3.42006e-07
707.509	141.289	19.7247	142.659	-7.94745	40.7055	3.32049	-0.00246852	11.4045	0.218022	1	11	0.133751	0.000937555	-2.98325e-05	0.00126639	0.0069424	0.000969198	0.00700973	7.94745	2.94789e-07
501.444	146.039	17.8974	147.132	-6.98688	42.9772	3.32049	-0.00248681	17.7341	0.262407	1	11	0.133707	0.000908756	-3.01625e-05	0.00150676	0.00674617	0.000826757	0.00679664	6.98688	6.28225e-08
354.66	149.812	15.827	150.646	-6.03066	45.2549	3.32049	-0.00253088	28.3538	0.312962	1	11	0.133673	0.000887331	-3.2407e-05	0.00158688	0.00660135	0.000697402	0.00663809	6.03066	-1.19488e-06
251.044	152.698	13.9899	153.338	-5.23473	47.5239	3.3205	-0.00241232	45.3162	0.377214	1	11	0.133656	0.000871648	-3.26462e-05	0.00126639	0.00649436	0.000595002	0.00652156	5.23473	4.06493e-07
177.781	154.942	12.6457	155.457	-4.66587	49.8153	3.32049	-0.00250157	70.7934	0.468439	1	11	0.133639	0.000859651	-3.29473e-05	0.001667	0.00641132	0.000523262	0.00643264	4.66587	-6.18016e-07
125.846	156.847	11.8775	157.296	-4.33057	52.0894	3.32049	-0.00244238	106.477	0.607117	1	11	0.133636	0.00084958	-3.40401e-05	0.00142663	0.00633929	0.000480055	0.00635744	4.33057	-4.51977e-07
89.116	158.598	11.7035	159.03	-4.22039	54.3607	3.32049	-0.00245284	152.598	0.826464	1	11	0.133624	0.000840243	-3.62114e-05	0.001667	0.00627108	0.000462764	0.00628814	4.22039	-4.01552e-07
63.0823	160.413	12.0934	160.868	-4.31135	56.6559	3.32049	-0.00237106	208.623	1.17903	1	11	0.133626	0.000830655	-3.78738e-05	0.00142663	0.0061987	0.000467317	0.00621629	4.31135	-6.57078e-07
44.6712	162.386	13.0195	162.907	-4.58398	58.9212	3.32049	-0.00245751	273.651	1.74788	1	11	0.133625	0.000820256	-3.83422e-05	0.00126639	0.00611885	0.00049059	0.00613849	4.58398	-6.52246e-07
31.6296	164.639	14.4607	165.273	-5.01957	61.1585	3.32049	-0.00260761	347.966	2.66387	1	11	0.133628	0.000808525	-3.91539e-05	0.00126639	0.00602738	0.000529402	0.00605059	5.01957	3.79737e-07
22.3854	167.268	16.4186	168.072	-5.60607	63.4064	3.32047	-0.00241326	433.03	4.13241	1	11	0.133625	0.000795048	-4.13366e-05	0.00158688	0.00592138	0.00058123	0.00594984	5.60607	-1.84772e-06
15.8576	170.374	18.8782	171.417	-6.32281	65.7329	3.3205	-0.00275174	531.647	6.44815	1	11	0.133618	0.000779491	-4.02764e-05	0.00102602	0.00579824	0.000642469	0.00583373	6.32281	3.37574e-06
11.2249	174.071	21.8465	175.437	-7.15342	68.1099	3.32047	-0.00294292	649.018	10.0642	1	11	0.133621	0.000761649	-4.21244e-05	0.00182724	0.0056557	0.000709809	0.00570006	7.15342	3.5585e-06
7.93953	178.438	25.3299	180.227	-8.07936	70.6527	3.32048	-0.00279366	791.391	15.6322	1	11	0.133617	0.000741379	-4.46548e-05	0.00190737	0.00549348	0.000779819	0.00554856	8.07936	1.57228e-06
5.6205	183.537	29.3426	185.868	-9.08317	72.5177	3.32047	-0.00348678	965.044	24.0511	1	11	0.133617	0.000718882	-5.32308e-05	0.00134651	0.00531271	0.000849357	0.00538017	9.08317	-3.37005e-06
3.97785	189.429	33.9942	192.455	-10.1738	75.0532	3.32048	-0.00233672	1176.97	36.7212	1	11	0.133625	0.000694314	-4.60388e-05	0.001667	0.00511431	0.000917793	0.00519601	10.1738	-4.10006e-06
2.81836	196.322	39.3996	200.237	-11.3479	78.5527	3.32049	-0.0023395	1433.28	55.4917	1	11	0.13362	0.00066731	-4.54304e-05	0.00118627	0.00489646	0.000982663	0.00499409	11.3479	2.0955e-06
1.99706	204.18	45.5832	209.206	-12.5849	83.4157	3.32049	-0.00204668	1748.33	83.0011	1	11	0.133618	0.00063869	-5.85995e-05	0.000945901	0.00466513	0.00104149	0.00477997	12.5849	-1.46017e-05
1.41224	213.328	52.9368	219.798	-13.9363	90.2221	3.32049	-0.00228673	2128.9	123.487	1	11	0.133618	0.000607916	-7.96849e-05	0.00198749	0.00441571	0.00109575	0.00454964	13.9363	-3.51694e-05
1.00006	223.94	61.2584	232.167	-15.2989	99.7683	3.32049	-0.00308838	2597.93	180.866	1	11	0.133618	0.000575524	-5.21072e-05	0.00118627	0.0041546	0.00113648	0.00430724	15.2989	3.21082e-05