File: utils/DE_206_6_30.mpt
EC-Lab ASCII FILE
Nb header lines : 60

Potentio Electrochemical Impedance Spectroscopy

Run on channel : 6 (SN 41300)
User :
CE vs. WE compliance from -10 V to 10 V
Electrode connection : standard
Ewe ctrl range : min = -10.00 V, max = 10.00 V
Acquisition started on : 12/03/2020 16:53:40
Technique started on : 12/03/2020 16:53:41
Saved on :
	File : DE_206_6_30.mpr
	Directory : P:\Chemistry\Data\VMP3\Kyler\DOE\DE_206\
	Host : 10.0.4.64
Device : VMP3 (SN 1432)
Address : USB
EC-Lab for windows v11.33 (software)
Internet server v11.32 (firmware)
Command interpretor v11.33 (firmware)
Electrode material :
Initial state :
Electrolyte :
Comments :
Electrode surface area : 0.001 cm²
Characteristic mass : 0.001 g
Equivalent Weight : 0.000 g/eq.
Density : 0.000 g/cm3
Record Analogic IN 1
Cycle Definition : Charge/Discharge alternance
Mode                Single sine
E (V)               0.0000
vs.                 Eoc
tE (h:m:s)          0:00:0.0000
record              0
dI                  1.000
unit dI             mA
dt (s)              0.000
fi                  1.000
unit fi             MHz
ff                  1.000
unit ff             Hz
Nd                  20
Points              per decade
spacing             Logarithmic
Va (mV)             128.0
pw                  0.50
Na                  3
corr                0
E range min (V)     -10.000
E range max (V)     10.000
I Range             Auto
Bandwidth           5
nc cycles           0
goto Ns'            0
nr cycles           0
inc. cycle          1

freq/Hz	Re(Z)/Ohm	-Im(Z)/Ohm	|Z|/Ohm	Phase(Z)/deg	time/s	<Ewe>/V	<I>/mA	Cs/µF	Cp/µF	cycle number	I Range	|Ewe|/V	|I|/A	(Q-Qo)/mA.h	Analog IN 1/V	Re(Y)/Ohm-1	Im(Y)/Ohm-1	|Y|/Ohm-1	Phase(Y)/deg	dq/mA.h
1.00002e+06	-11.5864	45.4343	46.8884	-104.306	1.8456	3.32612	0.2129	0.0035029	0.00328901	1	9	5.61612e-05	1.19776e-06	2.25835e-05	-0.000799647	-0.00527008	0.0206658	0.0213272	104.306	2.25835e-05
707950	97.3347	31.0296	102.161	-17.6819	4.21049	3.3254	0.000739074	0.00724506	0.000668379	1	11	0.00358976	3.51382e-05	4.30124e-05	-0.000238476	0.00932603	0.00297307	0.00978846	17.6819	2.88397e-07
501206	107.125	28.8889	110.952	-15.0921	5.99847	3.32545	0.00100067	0.0109919	0.000745182	1	11	0.0133916	0.000120697	4.35662e-05	-0.000238476	0.00870202	0.0023467	0.00901289	15.0921	3.42167e-08
354810	114.804	26.5655	117.838	-13.0288	7.78749	3.32555	0.00138934	0.0168852	0.000858167	1	11	0.0305551	0.000259298	4.43875e-05	-0.000158308	0.00826777	0.00191314	0.00848623	13.0288	8.33427e-07
251188	120.895	23.9466	123.244	-11.204	9.57448	3.3255	0.00125408	0.0264593	0.00099893	1	11	0.0559732	0.000454166	4.53748e-05	-0.000398811	0.00795935	0.00157657	0.00811399	11.204	6.42427e-07
177832	125.821	21.405	127.628	-9.65488	11.3615	3.32545	0.00114061	0.0418115	0.00117606	1	11	0.0904135	0.000708412	4.48676e-05	-0.00071948	0.00772427	0.00131407	0.00783525	9.65488	-1.08593e-06
125909	130.001	19.0963	131.396	-8.35663	12.8775	3.32547	0.00123732	0.0661931	0.00139813	1	11	0.13375	0.00101792	4.46303e-05	-0.00071948	0.00752978	0.00110608	0.00761059	8.35663	9.88148e-07
89129.3	133.574	17.0756	134.661	-7.28497	14.6635	3.32551	0.00136271	0.104574	0.00168148	1	11	0.129643	0.000962734	4.17105e-05	-0.000639313	0.0073661	0.000941654	0.00742604	7.28497	-1.58735e-06
63093.8	136.634	15.3686	137.496	-6.41763	16.4505	3.32553	0.00140687	0.164134	0.00205063	1	11	0.129434	0.000941366	4.39574e-05	-0.000158308	0.00722736	0.00081293	0.00727294	6.41763	-1.8759e-08
44666.7	139.232	14.0644	139.94	-5.76811	18.1005	3.32554	0.00138637	0.253347	0.002559	1	11	0.130399	0.000931816	4.53146e-05	-0.000478978	0.00710972	0.00071818	0.0071459	5.76811	-2.56334e-07
31621.1	141.527	13.2181	142.142	-5.33574	19.6135	3.32557	0.00144879	0.38078	0.00329278	1	11	0.137279	0.000965786	4.80809e-05	-0.000158308	0.00700471	0.000654215	0.0070352	5.33574	7.62827e-07
22389	143.618	12.8973	144.196	-5.13155	21.1265	3.32558	0.00142457	0.551172	0.00440938	1	11	0.139751	0.000969176	4.76459e-05	-0.000478978	0.00690722	0.000620287	0.00693501	5.13155	1.12373e-06
15847.7	145.678	13.1359	146.269	-5.15248	22.6415	3.32558	0.0014991	0.764531	0.00616611	1	11	0.135565	0.000926823	4.99364e-05	-0.000478978	0.00680911	0.000613984	0.00683674	5.15248	5.68609e-07
11217.7	147.88	13.9456	148.536	-5.38727	24.1575	3.32557	0.00143556	1.01737	0.00896791	1	11	0.129328	0.000870686	5.12346e-05	2.02625e-06	0.00670265	0.000632085	0.00673239	5.38727	6.59387e-07
7944	150.36	15.3302	151.14	-5.82155	25.625	3.32563	0.0016884	1.30687	0.0134453	1	11	0.132006	0.000873407	5.18139e-05	0.000162361	0.00658228	0.000671105	0.0066164	5.82155	6.15108e-08
5621.06	153.384	17.2602	154.352	-6.42044	27.5363	3.32565	0.00166884	1.64043	0.0205127	1	11	0.133316	0.000863715	5.32655e-05	-7.81411e-05	0.00643807	0.000724471	0.0064787	6.42044	8.99673e-07
3981.27	157.163	19.5931	158.38	-7.10623	29.8157	3.32566	0.00164182	2.0403	0.0312249	1	11	0.133901	0.000845442	5.50493e-05	-0.000318643	0.00626543	0.000781093	0.00631393	7.10623	-1.93086e-07
2817.3	161.939	22.0868	163.438	-7.76662	32.0959	3.32567	0.00167964	2.55773	0.0467102	1	11	0.134122	0.000820627	5.55229e-05	-0.000238476	0.00606238	0.000826845	0.00611851	7.76662	-3.10756e-07
1995.64	167.781	24.3315	169.536	-8.25146	34.3757	3.32567	0.00176889	3.27771	0.067512	1	11	0.134164	0.000791361	5.64992e-05	-0.000318643	0.00583738	0.000846531	0.00589844	8.25146	-1.3626e-07
1411.84	174.616	25.8007	176.512	-8.40501	36.6562	3.32566	0.00167778	4.36923	0.0933509	1	11	0.134134	0.000759915	5.80293e-05	-0.000318643	0.0056045	0.000828101	0.00566534	8.40501	8.59884e-07
1000.32	181.93	26.0165	183.781	-8.13828	38.9337	3.32567	0.0016597	6.11551	0.122555	1	11	0.134091	0.000729626	5.94834e-05	-0.000799647	0.00538647	0.000770281	0.00544127	8.13828	7.53963e-07
707.509	189.041	24.8751	190.671	-7.49623	41.2145	3.32566	0.001623	9.04322	0.153916	1	11	0.134038	0.00070298	6.11135e-05	-0.000238476	0.00519982	0.000684221	0.00524464	7.49623	5.79627e-07
501.444	195.209	22.7133	196.526	-6.63675	43.4862	3.32565	0.00157996	13.9739	0.186655	1	11	0.134009	0.000681889	6.23304e-05	-0.000318643	0.0050543	0.000588088	0.00508839	6.63675	8.90361e-07
354.66	200.193	20.154	201.205	-5.74877	45.7649	3.32566	0.00158256	22.2663	0.223406	1	11	0.133993	0.000665956	6.31829e-05	-0.000398811	0.00494507	0.000497835	0.00497007	5.74877	6.93337e-07
251.044	203.985	17.7982	204.76	-4.98658	48.0339	3.32566	0.00156896	35.62	0.269127	1	11	0.133974	0.000654299	6.32224e-05	-0.000158308	0.00486529	0.000424509	0.00488377	4.98658	-3.40487e-07
177.781	206.947	15.995	207.564	-4.41963	50.3243	3.32565	0.001563	55.9691	0.332364	1	11	0.133963	0.000645404	6.41487e-05	-0.000158308	0.00480345	0.000371261	0.00481778	4.41963	5.5923e-07
125.846	209.398	14.9527	209.931	-4.08446	52.5984	3.32565	0.00151586	84.5787	0.429092	1	11	0.133957	0.0006381	6.51521e-05	-0.000238476	0.00475138	0.000339288	0.00476347	4.08446	8.73206e-07
89.116	211.653	14.6366	212.159	-3.95592	54.8708	3.32565	0.00156523	122.018	0.580742	1	11	0.133955	0.000631392	6.6442e-05	-0.000238476	0.00470223	0.000325176	0.00471346	3.95592	-1.45191e-07
63.0823	213.963	15.0323	214.49	-4.01881	57.1668	3.32567	0.00157865	167.836	0.824372	1	11	0.133953	0.000624516	6.76948e-05	-0.000318643	0.00465075	0.000326746	0.00466221	4.01881	3.40016e-07
44.6712	216.436	16.1189	217.036	-4.2592	59.4322	3.32565	0.00159784	221.032	1.21918	1	11	0.13395	0.00061718	6.78659e-05	-0.000238476	0.00459481	0.000342196	0.00460754	4.2592	3.19545e-07
31.6296	219.255	17.8615	219.982	-4.65728	61.6695	3.32565	0.00160194	281.714	1.85726	1	11	0.133951	0.000608919	6.80407e-05	-0.000318643	0.00453082	0.000369101	0.00454583	4.65728	-3.97198e-07
22.3854	222.574	20.2066	223.489	-5.18743	63.9174	3.32565	0.00144449	351.854	2.87631	1	11	0.133952	0.000599368	6.95504e-05	-0.000559145	0.00445616	0.000404557	0.00447449	5.18743	5.80182e-07
15.8576	226.421	23.1789	227.605	-5.84505	66.2449	3.32565	0.00171932	433.002	4.4907	1	11	0.133953	0.000588532	6.88509e-05	-0.000238476	0.00437074	0.000447436	0.00439358	5.84505	-2.27774e-06
11.2249	231.053	26.7806	232.6	-6.61146	68.6219	3.32564	0.00169845	529.443	7.01844	1	11	0.133952	0.000575892	6.91064e-05	-0.000398811	0.00427064	0.000494995	0.00429923	6.61146	-3.30413e-06
7.93953	236.477	31.0123	238.502	-7.47129	71.1657	3.32563	0.00152089	646.385	10.9288	1	11	0.133946	0.000561615	7.2065e-05	-0.000478978	0.00415724	0.000545192	0.00419283	7.47129	2.68399e-07
5.6205	242.834	35.8341	245.464	-8.39434	73.0307	3.32564	0.00245305	790.221	16.8409	1	11	0.133945	0.000545681	7.70654e-05	-0.000158308	0.00403027	0.000594732	0.00407392	8.39434	1.55459e-06
3.97785	250.156	41.4505	253.567	-9.40834	75.5662	3.32564	0.00105816	965.253	25.7938	1	11	0.133953	0.000528275	7.28496e-05	-0.000478978	0.00389068	0.000644679	0.00394373	9.40834	5.04812e-06
2.81836	258.84	47.8751	263.231	-10.479	79.0626	3.32565	0.00152413	1179.54	39.0175	1	11	0.13395	0.000508871	7.25443e-05	-0.00071948	0.00373559	0.000690933	0.00379895	10.479	2.11444e-06
1.99706	268.768	55.2108	274.38	-11.6083	84.4196	3.32565	5.59578e-05	1443.46	58.4451	1	12	0.133949	0.000488187	7.39777e-05	-0.000158308	0.00357003	0.000733363	0.00364458	11.6083	3.32528e-06
1.41224	280.176	63.7222	287.331	-12.8132	91.2261	3.32566	-0.000233787	1768.57	86.9838	1	12	0.133948	0.000466179	9.06601e-05	-0.000318643	0.00339364	0.000771838	0.00348031	12.8132	2.78637e-05
1.00006	293.57	73.3394	302.592	-14.0265	100.77	3.32566	0.000514309	2169.98	127.472	1	12	0.133948	0.000442669	7.08141e-05	2.02625e-06	0.00320625	0.000800983	0.00330478	14.0265	-1.58112e-05