File: utils/DE_206_14_30.mpt
EC-Lab ASCII FILE
Nb header lines : 60

Potentio Electrochemical Impedance Spectroscopy

Run on channel : 14 (SN 41308)
User :
CE vs. WE compliance from -10 V to 10 V
Electrode connection : standard
Ewe ctrl range : min = -5.00 V, max = 5.00 V
Acquisition started on : 12/03/2020 16:52:25
Technique started on : 12/03/2020 16:52:26
Saved on :
	File : DE_206_14_30.mpr
	Directory : P:\Chemistry\Data\VMP3\Kyler\DOE\DE_206\
	Host : 10.0.4.64
Device : VMP3 (SN 1432)
Address : USB
EC-Lab for windows v11.33 (software)
Internet server v11.32 (firmware)
Command interpretor v11.33 (firmware)
Electrode material :
Initial state :
Electrolyte :
Comments :
Electrode surface area : 0.001 cm²
Characteristic mass : 0.001 g
Equivalent Weight : 0.000 g/eq.
Density : 0.000 g/cm3
Record Analogic IN 1
Cycle Definition : Charge/Discharge alternance
Mode                Single sine
E (V)               0.0000
vs.                 Eoc
tE (h:m:s)          0:00:0.0000
record              0
dI                  1.000
unit dI             mA
dt (s)              0.000
fi                  1.000
unit fi             MHz
ff                  1.000
unit ff             Hz
Nd                  20
Points              per decade
spacing             Logarithmic
Va (mV)             128.0
pw                  0.50
Na                  3
corr                0
E range min (V)     -5.000
E range max (V)     5.000
I Range             Auto
Bandwidth           5
nc cycles           0
goto Ns'            0
nr cycles           0
inc. cycle          1

freq/Hz	Re(Z)/Ohm	-Im(Z)/Ohm	|Z|/Ohm	Phase(Z)/deg	time/s	<Ewe>/V	<I>/mA	Cs/µF	Cp/µF	cycle number	I Range	|Ewe|/V	|I|/A	(Q-Qo)/mA.h	Analog IN 1/V	Re(Y)/Ohm-1	Im(Y)/Ohm-1	|Y|/Ohm-1	Phase(Y)/deg	dq/mA.h
1.00002e+06	-0.979463	-2.98923	3.14561	108.142	1.8446	3.27421	-0.0563454	-0.0532417	-0.0480797	1	9	9.00386e-05	2.86236e-05	-2.79985e-06	-0.000100609	-0.098987	-0.3021	0.317903	-108.142	-2.79985e-06
707950	0.880066	-4.04237	4.13706	77.7178	3.3636	3.27332	-0.0600953	-0.0556137	-0.053097	1	9	7.97602e-05	1.92794e-05	-2.15892e-05	-0.000100609	0.0514199	-0.236185	0.241717	-77.7178	-2.69865e-06
501206	1.70182	-3.19666	3.62144	61.9703	4.99548	3.27318	-0.051868	-0.0993361	-0.0773993	1	9	0.000609751	0.000168373	-3.96062e-05	-0.000340934	0.129763	-0.243744	0.276133	-61.9703	-5.80678e-06
354810	2.25479	-2.1767	3.13403	43.9905	6.78249	3.27313	-0.0553939	-0.206075	-0.0994074	1	9	0.00235454	0.000751282	-6.22003e-05	-0.000340934	0.229562	-0.221613	0.319078	-43.9905	-8.08378e-06
251188	2.42813	-1.34575	2.77612	28.9967	8.56749	3.273	-0.0553193	-0.470824	-0.110639	1	9	0.00580731	0.00209188	-9.28624e-05	-0.000981802	0.315061	-0.174617	0.360215	-28.9967	-1.26521e-05
177832	2.5239	-0.706381	2.62089	15.6357	10.3555	3.27295	-0.056308	-1.26699	-0.0920349	1	9	0.0139516	0.00532322	-9.11944e-05	-0.000421043	0.367431	-0.102835	0.38155	-15.6357	5.22337e-06
125909	2.5924	-0.189955	2.59935	4.19078	12.1425	3.273	-0.0344615	-6.65446	-0.0355372	1	9	0.0404023	0.0155433	-6.75965e-05	-0.000741477	0.383683	-0.0281139	0.384712	-4.19078	2.41267e-05
89129.3	2.66104	0.278964	2.67563	-5.98461	14.2015	3.27325	0.0114699	6.40105	0.0695821	1	9	0.1192	0.0445504	-0.000349479	-0.000340934	0.371707	0.0389671	0.373744	5.98461	-9.79303e-05
63093.8	2.74573	0.752077	2.84687	-15.318	15.9905	3.27348	0.0427749	3.35406	0.234077	1	9	0.133971	0.047059	-0.000316532	-0.000421043	0.338784	0.0927954	0.351263	15.318	2.43613e-05
44666.7	2.86155	1.27013	3.13077	-23.9346	17.7795	3.27343	0.0148094	2.80535	0.461725	1	9	0.132772	0.0424087	-0.000159068	-0.000100609	0.291944	0.129583	0.319411	23.9346	4.99653e-05
31621.1	3.0232	1.87976	3.55995	-31.8725	19.1585	3.27344	0.0193988	2.67756	0.746547	1	9	0.139532	0.0391949	-0.000140159	-0.00058126	0.23855	0.148325	0.280903	31.8725	1.30575e-05
22389	3.2474	2.63301	4.18071	-39.0354	20.5375	3.27346	0.0323085	2.6998	1.07087	1	9	0.134873	0.0322607	-0.000141691	-0.000100609	0.185796	0.150644	0.239194	39.0354	-3.56089e-06
15847.7	3.57959	3.57829	5.06138	-44.9896	22.2185	3.27354	-0.00742538	2.80659	1.40279	1	10	0.130346	0.025753	-6.08181e-05	-0.000421043	0.139732	0.139681	0.197575	44.9896	6.84556e-06
11217.7	4.04407	4.79843	6.2753	-49.8762	23.5985	3.27355	-0.00778176	2.95676	1.7288	1	10	0.134812	0.0214829	-5.98091e-05	-0.000340934	0.102695	0.121851	0.159355	49.8762	8.61638e-07
7944	4.71233	6.3561	7.9124	-53.4472	25.067	3.27356	-0.00207045	3.15203	2.03402	1	10	0.126004	0.0159248	-4.13347e-05	-0.000340934	0.0752695	0.101525	0.126384	53.4472	-8.0913e-07
5621.06	5.68016	8.32982	10.0822	-55.7097	26.9793	3.27358	0.00773694	3.39912	2.32023	1	10	0.118579	0.0117613	-2.95958e-05	-2.05e-05	0.0558795	0.081946	0.099185	55.7097	9.31754e-06
3981.27	7.07519	10.7577	12.8758	-56.6676	29.4797	3.2736	0.0107773	3.71604	2.59399	1	10	0.12654	0.00982772	-2.26605e-05	-0.000180717	0.0426767	0.064889	0.0776652	56.6676	-4.94673e-06
2817.3	9.04266	13.7215	16.4332	-56.6146	31.7599	3.2736	0.0106728	4.11704	2.87043	1	10	0.123754	0.00753076	-3.29987e-05	-2.05e-05	0.0334852	0.0508111	0.0608525	56.6146	-1.87916e-06
1995.64	11.76	17.2059	20.8409	-55.648	34.0397	3.2736	0.0110122	4.63511	3.15926	1	10	0.122216	0.00586427	-2.20013e-05	-0.000100609	0.0270754	0.0396138	0.0479827	55.648	-9.63747e-07
1411.84	15.4488	21.2025	26.2338	-53.9217	36.3212	3.27359	0.010337	5.31677	3.47296	1	10	0.121374	0.00462664	-1.59019e-05	-0.000661368	0.0224477	0.030808	0.0381187	53.9217	-5.35995e-07
1000.32	20.3178	25.5363	32.633	-51.4927	38.8497	3.27359	-0.000441918	6.23051	3.81526	1	11	0.125465	0.00384474	-1.16025e-05	-0.000421043	0.0190793	0.0239797	0.0306438	51.4927	-1.90625e-07
707.509	26.6001	30.1499	40.2067	-48.5793	41.1305	3.27359	-0.000713693	7.4611	4.19543	1	11	0.123124	0.00306228	-1.17685e-05	0.000299934	0.0164546	0.0186504	0.0248715	48.5793	1.26234e-06
501.444	34.4946	34.5964	48.8547	-45.0844	43.4022	3.27359	-0.00061312	9.17418	4.60061	1	11	0.121862	0.00249438	-1.00856e-05	-0.000260826	0.0144523	0.014495	0.0204689	45.0844	-1.30393e-06
354.66	44.2261	38.3156	58.5152	-40.9042	45.6819	3.27358	-0.000641871	11.7121	5.02164	1	11	0.121167	0.00207069	-7.48086e-06	-0.000741477	0.0129164	0.0111902	0.0170896	40.9042	1.17141e-06
251.044	55.4633	40.4178	68.6278	-36.0819	47.9509	3.27358	-0.000609769	15.6855	5.44054	1	11	0.120781	0.00175994	-1.00911e-05	-0.000421043	0.0117762	0.00858168	0.0145714	36.0819	-1.66927e-06
177.781	67.331	40.155	78.3957	-30.8111	50.2422	3.27359	-0.000595402	22.2943	5.8491	1	11	0.120573	0.00153801	-1.34241e-05	-0.000180717	0.0109555	0.00653364	0.0127558	30.8111	-3.09769e-07
125.846	78.5092	37.4271	86.974	-25.4882	52.5174	3.2736	-0.000510855	33.7906	6.25733	1	11	0.120463	0.00138505	-1.46076e-05	-2.05e-05	0.0103787	0.00494774	0.0114977	25.4882	-1.18408e-06
89.116	87.8386	32.9767	93.8248	-20.5773	54.7887	3.27359	-0.000632929	54.1574	6.69016	1	11	0.120396	0.0012832	-1.47947e-05	-0.000260826	0.00997816	0.00374603	0.0106582	20.5773	5.07026e-07
63.0823	94.9451	27.943	98.9716	-16.3995	57.0849	3.27358	-0.000469619	90.29	7.19721	1	11	0.120371	0.00121622	-1.51945e-05	-0.000340934	0.00969284	0.00285267	0.0101039	16.3995	5.54851e-07
44.6712	100.08	23.2434	102.744	-13.075	59.3502	3.27358	-0.00043117	153.282	7.84476	1	11	0.120352	0.00117138	-1.56958e-05	0.000219826	0.0094806	0.00220185	0.00973293	13.075	5.52618e-07
31.6296	103.798	19.3638	105.589	-10.5672	61.5864	3.27359	-0.000580489	259.859	8.73942	1	11	0.120339	0.0011397	-1.56956e-05	-0.000100609	0.0093101	0.00173682	0.00947072	10.5672	-6.12893e-07
22.3854	106.628	16.4041	107.882	-8.74603	63.8334	3.27357	-0.00127463	433.415	10.0209	1	11	0.120335	0.00111543	-1.6002e-05	-0.000260826	0.00916157	0.00140945	0.00926935	8.74603	3.1375e-06
15.8576	108.919	14.3114	109.855	-7.4855	66.161	3.27359	-0.000241912	701.297	11.9022	1	11	0.120336	0.00109541	-2.0149e-05	-0.00058126	0.00902534	0.00118589	0.00910292	7.4855	-4.91033e-06
11.2249	110.88	12.9777	111.637	-6.67571	68.5379	3.27359	-0.000177891	1092.55	14.7647	1	11	0.120332	0.00107789	-1.69877e-05	-0.000100609	0.00889688	0.00104132	0.00895762	6.67571	-1.95442e-06
7.93953	112.653	12.3256	113.325	-6.244	71.0817	3.27359	0.000141181	1626.37	19.2388	1	11	0.120332	0.00106183	-2.31017e-05	5.96085e-05	0.00877182	0.00095974	0.00882417	6.244	-9.4549e-06
5.6205	114.262	12.3203	114.924	-6.15413	72.9457	3.27357	-0.0012093	2298.4	26.4145	1	11	0.120326	0.001047	-1.07947e-05	-2.05e-05	0.00865124	0.000932818	0.00870139	6.15413	7.35882e-06
3.97785	115.875	13.0675	116.609	-6.43423	75.4812	3.27359	-0.000681653	3061.81	38.4503	1	11	0.120327	0.00103188	-2.80028e-05	0.000139717	0.00852164	0.000961011	0.00857566	6.43423	-5.81805e-06
2.81836	117.522	14.6169	118.428	-7.0898	78.9797	3.27359	0.000461649	3863.38	58.8535	1	11	0.12033	0.00101606	-3.36242e-05	-0.000340934	0.0083794	0.00104219	0.00844396	7.0898	-1.96853e-05
1.99706	119.357	17.0566	120.57	-8.13273	83.8417	3.27359	-0.000519038	4672.36	93.5073	1	11	0.12033	0.000998009	-2.65455e-05	-0.000180717	0.00821055	0.00117332	0.00829396	8.13273	-2.42039e-06
1.41224	121.414	20.7161	123.169	-9.68279	90.6482	3.27359	-0.000883549	5440.06	153.894	1	11	0.120328	0.000976939	1.05738e-05	-0.000100609	0.00800329	0.00136555	0.00811895	9.68279	5.63209e-05
1.00006	124.105	25.8282	126.764	-11.7564	100.191	3.27359	0.000592178	6161.68	255.797	1	11	0.120328	0.000949234	-2.02041e-05	-0.000340934	0.00772321	0.00160732	0.00788869	11.7564	-1.7351e-05