File: utils/DE_206_4_30.mpt
EC-Lab ASCII FILE
Nb header lines : 60

Potentio Electrochemical Impedance Spectroscopy

Run on channel : 4 (SN 4192)
User :
CE vs. WE compliance from -10 V to 10 V
Electrode connection : standard
Ewe ctrl range : min = -10.00 V, max = 10.00 V
Acquisition started on : 12/03/2020 16:53:59
Technique started on : 12/03/2020 16:54:00
Saved on :
	File : DE_206_4_30.mpr
	Directory : P:\Chemistry\Data\VMP3\Kyler\DOE\DE_206\
	Host : 10.0.4.64
Device : VMP3 (SN 1432)
Address : USB
EC-Lab for windows v11.33 (software)
Internet server v11.32 (firmware)
Command interpretor v11.33 (firmware)
Electrode material :
Initial state :
Electrolyte :
Comments :
Electrode surface area : 0.001 cm²
Characteristic mass : 0.001 g
Equivalent Weight : 0.000 g/eq.
Density : 0.000 g/cm3
Record Analogic IN 1
Cycle Definition : Charge/Discharge alternance
Mode                Single sine
E (V)               0.0000
vs.                 Eoc
tE (h:m:s)          0:00:0.0000
record              0
dI                  1.000
unit dI             mA
dt (s)              0.000
fi                  1.000
unit fi             MHz
ff                  1.000
unit ff             Hz
Nd                  20
Points              per decade
spacing             Logarithmic
Va (mV)             128.0
pw                  0.50
Na                  3
corr                0
E range min (V)     -10.000
E range max (V)     10.000
I Range             Auto
Bandwidth           5
nc cycles           0
goto Ns'            0
nr cycles           0
inc. cycle          1

freq/Hz	Re(Z)/Ohm	-Im(Z)/Ohm	|Z|/Ohm	Phase(Z)/deg	time/s	<Ewe>/V	<I>/mA	Cs/µF	Cp/µF	cycle number	I Range	|Ewe|/V	|I|/A	(Q-Qo)/mA.h	Analog IN 1/V	Re(Y)/Ohm-1	Im(Y)/Ohm-1	|Y|/Ohm-1	Phase(Y)/deg	dq/mA.h
1.00002e+06	85.8335	36.3943	93.2305	-22.9774	1.94949	3.32559	-0.00369155	0.00437299	0.000666391	1	11	0.00311756	3.34393e-05	-1.63044e-06	-0.0013667	0.00987508	0.00418713	0.0107261	22.9774	-1.63044e-06
707950	94.9906	31.1932	99.9812	-18.1792	3.73648	3.32626	-0.000272779	0.00720705	0.000701522	1	11	0.00845759	8.45918e-05	-2.21673e-06	-0.00104593	0.00950264	0.0031205	0.0100019	18.1792	9.40253e-09
501206	103.666	28.8263	107.6	-15.5396	5.52547	3.32659	0.00118898	0.0110158	0.000790627	1	11	0.0188939	0.000175595	-1.4883e-06	-0.000564764	0.00895399	0.00248982	0.00929371	15.5396	3.85253e-07
354810	110.861	26.4653	113.976	-13.4267	7.31349	3.32671	0.00157387	0.0169491	0.000913849	1	11	0.0355319	0.000311749	-2.013e-07	-0.000564764	0.00853396	0.00203728	0.00877377	13.4267	5.1458e-07
251188	116.78	23.8495	119.191	-11.5426	9.09947	3.32676	0.00162264	0.026567	0.0010637	1	11	0.0601766	0.000504877	1.43787e-06	-0.000725151	0.00822024	0.00167879	0.00838992	11.5426	7.76723e-07
177832	121.846	21.2966	123.694	-9.91413	10.8865	3.32671	0.00151265	0.0420243	0.00124574	1	11	0.094091	0.000760678	3.1468e-06	-0.000324182	0.00796377	0.00139192	0.00808449	9.91413	7.67843e-08
125909	125.754	18.9005	127.166	-8.54745	12.4035	3.32673	0.0016917	0.0668789	0.00147738	1	11	0.136525	0.00107359	4.99242e-06	0.00015698	0.00777639	0.00116877	0.00786373	8.54745	6.77349e-08
89129.3	129.221	16.8454	130.315	-7.42725	14.1885	3.32676	0.00187446	0.106003	0.00177131	1	11	0.12971	0.00099536	8.05455e-06	-0.00200825	0.00760935	0.000991962	0.00767373	7.42725	2.52885e-06
63093.8	132.159	15.1502	133.025	-6.53961	15.9745	3.32678	0.00188582	0.1665	0.00215967	1	11	0.129391	0.000972682	8.42721e-06	-0.000725151	0.00746848	0.000856157	0.0075174	6.53961	2.08189e-06
44666.7	134.696	13.8854	135.41	-5.88566	17.6265	3.32681	0.00205705	0.256612	0.00269832	1	11	0.130309	0.000962329	5.70584e-06	-0.000564764	0.00734604	0.000757282	0.00738497	5.88566	-1.22103e-06
31621.1	136.857	13.0975	137.482	-5.46666	19.1405	3.32681	0.00200716	0.384287	0.00348767	1	11	0.137213	0.000998039	8.09705e-06	-0.000805345	0.00724057	0.000692936	0.00727366	5.46666	-2.01685e-08
22389	138.919	12.8366	139.511	-5.27932	20.6555	3.32683	0.00204569	0.553778	0.00468832	1	11	0.139639	0.00100092	9.46656e-06	-0.000564764	0.00713749	0.000659527	0.00716789	5.27932	1.13563e-06
15847.7	140.988	13.1452	141.6	-5.32666	22.1695	3.32681	0.00200996	0.763987	0.00658413	1	11	0.135293	0.000955461	6.5754e-06	-0.000564764	0.00703167	0.000655608	0.00706217	5.32666	-6.39903e-07
11217.7	143.191	14.0115	143.875	-5.58869	23.5465	3.32683	0.00202559	1.01259	0.00960349	1	11	0.14068	0.000977794	6.52288e-06	-0.00144689	0.00691744	0.000676882	0.00695048	5.58869	-2.47023e-08
7944	145.743	15.432	146.558	-6.04423	25.15	3.32689	0.00248921	1.29826	0.0143941	1	11	0.130885	0.000893058	8.94644e-06	-0.000324182	0.00678532	0.000718462	0.00682325	6.04423	7.90056e-07
5621.06	148.816	17.3513	149.824	-6.65041	27.0623	3.32692	0.00247469	1.63182	0.0218862	1	11	0.132107	0.000881751	1.09172e-05	-0.000644957	0.00662959	0.000772982	0.0066745	6.65041	1.21436e-06
3981.27	152.651	19.6354	153.908	-7.3297	29.3427	3.32693	0.00258226	2.03591	0.0331371	1	11	0.132643	0.000861832	1.28207e-05	-0.000725151	0.00644428	0.000828927	0.00649738	7.3297	1.85296e-08
2817.3	157.463	22.0549	159	-7.9732	31.6229	3.32692	0.00230886	2.56143	0.0492831	1	11	0.132828	0.000835396	1.31387e-05	-0.000885539	0.0062285	0.000872388	0.0062893	7.9732	-2.15955e-07
1995.64	163.283	24.2003	165.067	-8.43049	33.9027	3.32692	0.00240806	3.29546	0.0708337	1	11	0.132858	0.000804877	1.44212e-05	-0.000644957	0.00599269	0.000888182	0.00605815	8.43049	-2.81022e-08
1411.84	170.079	25.5574	171.988	-8.54579	36.1842	3.32692	0.00237902	4.41081	0.097399	1	11	0.132821	0.000772264	1.72575e-05	-0.000564764	0.00574979	0.00086401	0.00581434	8.54579	1.02179e-06
1000.32	177.275	25.7026	179.129	-8.24964	38.4617	3.32695	0.00275088	6.1902	0.127446	1	11	0.132767	0.000741184	1.96199e-05	-0.000965732	0.0055248	0.000801023	0.00558257	8.24964	1.08347e-06
707.509	184.262	24.5192	185.887	-7.57962	40.7425	3.32693	0.00270752	9.1745	0.159624	1	11	0.132725	0.000714013	2.20006e-05	-0.000725151	0.00533262	0.000709593	0.00537962	7.57962	1.2414e-06
501.444	190.296	22.3501	191.604	-6.69864	43.0142	3.32692	0.00262488	14.201	0.193226	1	11	0.132687	0.000692507	2.47265e-05	-0.000644957	0.00518346	0.000608792	0.00521909	6.69864	7.47884e-07
354.66	195.121	19.7992	196.123	-5.79404	45.2939	3.32692	0.00262953	22.6653	0.230992	1	11	0.132664	0.000676433	2.63144e-05	-0.000885539	0.00507278	0.000514741	0.00509883	5.79404	8.71679e-07
251.044	198.806	17.4632	199.571	-5.02001	47.5629	3.32692	0.00268593	36.3032	0.27797	1	11	0.132653	0.000664688	2.83052e-05	-0.00120631	0.00499152	0.000438458	0.00501074	5.02001	7.77614e-07
177.781	201.639	15.6822	202.248	-4.44714	49.8553	3.32692	0.00277805	57.0858	0.343221	1	11	0.132641	0.000655833	2.86896e-05	-0.000965732	0.00492955	0.000383389	0.00494443	4.44714	-1.26281e-08
125.846	203.968	14.6446	204.493	-4.1067	52.1304	3.32692	0.00265391	86.3583	0.442895	1	11	0.132634	0.000648599	3.07382e-05	-0.00048457	0.00487758	0.000350202	0.00489013	4.1067	8.0489e-07
89.116	206.072	14.327	206.57	-3.97705	54.4027	3.32692	0.00277842	124.655	0.599635	1	11	0.132639	0.000642103	3.17356e-05	-0.00048457	0.00482932	0.000335755	0.00484098	3.97705	1.62219e-07
63.0823	208.157	14.7818	208.681	-4.06192	56.6988	3.32691	0.00272687	170.681	0.856397	1	11	0.132632	0.000635572	3.35615e-05	-0.00104593	0.00477997	0.00033944	0.00479201	4.06192	2.49749e-07
44.6712	210.504	15.8726	211.101	-4.31211	58.9642	3.32691	0.00267978	224.463	1.26899	1	11	0.132631	0.000628283	3.52534e-05	-0.000324182	0.00472365	0.000356177	0.00473706	4.31211	2.30293e-07
31.6296	213.24	17.6479	213.969	-4.73105	61.2014	3.32691	0.00265838	285.124	1.93962	1	11	0.132633	0.000619872	3.62705e-05	-0.000404376	0.00465765	0.00038547	0.00467357	4.73105	4.53763e-07
22.3854	216.467	20.0442	217.393	-5.29031	63.4484	3.32691	0.00272463	354.705	3.01544	1	11	0.13263	0.000610094	3.81864e-05	-0.000725151	0.00458036	0.000424126	0.00459995	5.29031	-1.29872e-06
15.8576	220.311	23.0683	221.515	-5.97754	65.7759	3.32691	0.00273264	435.079	4.71836	1	11	0.132629	0.000598735	4.12816e-05	-0.00048457	0.00448982	0.000470119	0.00451436	5.97754	1.95533e-06
11.2249	224.857	26.7366	226.441	-6.78091	68.1529	3.32691	0.00250576	530.315	7.39325	1	11	0.132631	0.000585718	4.02815e-05	-0.000243989	0.00438527	0.00052143	0.00441617	6.78091	-7.44384e-07
7.93953	230.276	31.0227	232.356	-7.67268	70.6967	3.32691	0.00245383	646.169	11.5185	1	11	0.132641	0.000570852	4.71466e-05	-0.000564764	0.00426521	0.000574608	0.00430374	7.67268	6.61938e-06
5.6205	236.511	35.928	239.224	-8.63767	72.5616	3.32691	0.00322845	788.156	17.7774	1	11	0.132631	0.000554423	4.35367e-05	-0.00104593	0.00413277	0.000627802	0.00418018	8.63767	-3.26425e-06
3.97785	243.785	41.5323	247.298	-9.66833	75.0972	3.3269	0.00246267	963.354	27.1717	1	11	0.132636	0.000536344	5.2545e-05	-0.000885539	0.00398628	0.000679119	0.00404371	9.66833	8.24431e-06
2.81836	252.263	47.889	256.769	-10.749	78.5956	3.32691	0.00225085	1179.2	41.018	1	11	0.132639	0.000516571	5.67328e-05	-3.40745e-06	0.00382622	0.000726359	0.00389455	10.749	1.50263e-05
1.99706	262.678	55.1763	268.41	-11.8627	84.0067	3.32692	0.00010014	1444.36	61.0357	1	12	0.132645	0.000494188	6.0005e-05	-0.000885539	0.00364607	0.00076587	0.00372564	11.8627	1.27737e-05
1.41224	274.114	63.4699	281.366	-13.0368	90.8131	3.32693	0.00031301	1775.6	90.3518	1	12	0.132642	0.000471422	5.07252e-05	7.67863e-05	0.00346248	0.000801723	0.00355409	13.0368	-3.30325e-06
1.00006	287.139	73.0346	296.282	-14.2707	100.359	3.32693	0.000478798	2179.03	132.407	1	12	0.132647	0.000447704	3.08369e-05	-0.00144689	0.00327102	0.000831993	0.00337517	14.2707	-3.29676e-05