File: data/DE_104_10_30orig.mpt
EC-Lab ASCII FILE
Nb header lines : 59

Potentio Electrochemical Impedance Spectroscopy

Run on channel : 10 (SN 41749)
User :
CE vs. WE compliance from -10 V to 10 V
Electrode connection : standard
Ewe ctrl range : min = -10.00 V, max = 10.00 V
Acquisition started on : 05/08/2020 13:14:02
Saved on :
	File : DE_104_10_30.mpr
	Directory : P:\Chemistry\Data\VMP3\Kyler\DOE\DE_104\
	Host : 10.0.4.64
Device : VMP3 (SN 1432)
Address : USB
EC-Lab for windows v11.33 (software)
Internet server v11.32 (firmware)
Command interpretor v11.33 (firmware)
Electrode material :
Initial state :
Electrolyte :
Comments :
Electrode surface area : 0.001 cm²
Characteristic mass : 0.001 g
Equivalent Weight : 0.000 g/eq.
Density : 0.000 g/cm3
Record Analogic IN 1
Cycle Definition : Charge/Discharge alternance
Mode                Single sine
E (V)               0.0000
vs.                 Eoc
tE (h:m:s)          0:00:0.0000
record              0
dI                  1.000
unit dI             mA
dt (s)              0.000
fi                  1.000
unit fi             MHz
ff                  1.000
unit ff             Hz
Nd                  20
Points              per decade
spacing             Logarithmic
Va (mV)             128.0
pw                  0.50
Na                  3
corr                0
E range min (V)     -10.000
E range max (V)     10.000
I Range             Auto
Bandwidth           5
nc cycles           0
goto Ns'            0
nr cycles           0
inc. cycle          1

freq/Hz	Re(Z)/Ohm	-Im(Z)/Ohm	|Z|/Ohm	Phase(Z)/deg	time/s	<Ewe>/V	<I>/mA	Cs/µF	Cp/µF	cycle number	I Range	|Ewe|/V	|I|/A	(Q-Qo)/mA.h	Analog IN 1/V	Re(Y)/Ohm-1	Im(Y)/Ohm-1	|Y|/Ohm-1	Phase(Y)/deg	dq/mA.h
707950	417.907	565.725	703.343	-53.5463	4.69648	-0.00194081	1.63873e-05	0.000397386	0.000257092	1	12	0.00291781	4.14849e-06	-3.72784e-06	0.000665641	0.000844783	0.00114359	0.00142178	53.5463	2.68617e-08
501206	518.721	741.287	904.753	-55.0173	6.48548	-0.00217375	5.80223e-06	0.000428368	0.000287561	1	12	0.0131629	1.45486e-05	-3.69139e-06	0.000585472	0.000633685	0.000905578	0.00110527	55.0173	1.04164e-08
354810	649.862	966.728	1164.85	-56.0899	8.27349	-0.00221308	1.11697e-05	0.000464002	0.000319585	1	12	0.0323175	2.77438e-05	-3.67276e-06	0.00074581	0.000478937	0.000712462	0.000858477	56.0899	-1.11801e-08
251188	840.702	1239.03	1497.32	-55.8425	10.0595	-0.00233296	2.48564e-06	0.000511375	0.000350165	1	12	0.0632382	4.22342e-05	-3.75313e-06	0.00074581	0.000374982	0.000552651	0.000667858	55.8425	-7.38207e-08
177832	1121.6	1545.73	1909.78	-54.0348	11.8465	-0.00240567	-1.00562e-05	0.000578998	0.000379294	1	12	0.109094	5.71239e-05	-3.74933e-06	0.000505303	0.000307518	0.000423804	0.000523619	54.0348	7.25339e-08
125909	1501.06	1863.1	2392.55	-51.1423	13.4985	-0.0023897	-5.34133e-06	0.000678464	0.00041141	1	12	0.13001	5.43395e-05	-3.72518e-06	0.000585472	0.000262225	0.000325471	0.000417964	51.1423	6.17717e-08
89129.3	1982.99	2167.83	2937.98	-47.5497	15.2855	-0.00236254	-1.80885e-05	0.000823712	0.000448463	1	12	0.129827	4.41894e-05	-3.86443e-06	0.000425134	0.000229733	0.000251146	0.00034037	47.5497	-6.22056e-08
63093.8	2562.99	2434.47	3534.9	-43.5268	16.9365	-0.0023427	-2.84436e-06	0.00103617	0.000491453	1	12	0.140729	3.98113e-05	-3.81297e-06	0.000264796	0.000205112	0.000194827	0.000282893	43.5268	1.87652e-08
44666.7	3217.49	2632.15	4156.98	-39.2858	18.5875	-0.00231482	-1.02992e-05	0.00135371	0.00054274	1	12	0.129846	3.12357e-05	-3.91481e-06	0.000104458	0.000186192	0.00015232	0.000240559	39.2858	-1.68735e-08
31621.1	4034.67	2656.08	4830.46	-33.3574	20.4045	-0.0023058	-8.63132e-06	0.00189497	0.000572936	1	13	0.123778	2.56244e-05	-3.89769e-06	0.000585472	0.000172915	0.000113832	0.00020702	33.3574	1.14246e-08
22389	4710.12	2688.3	5423.3	-29.7155	22.0545	-0.00228294	-1.09261e-05	0.00264428	0.000649733	1	13	0.129246	2.38315e-05	-3.87063e-06	0.000104458	0.000160142	9.14008e-05	0.00018439	29.7155	2.75228e-08
15847.7	5361.58	2656.04	5983.4	-26.3531	23.5705	-0.00228714	-1.04097e-05	0.00378111	0.000745062	1	13	0.135878	2.27091e-05	-3.8755e-06	0.000425134	0.00014976	7.41887e-05	0.000167129	26.3531	1.2947e-08
11217.7	5961.29	2584.28	6497.34	-23.4372	25.0855	-0.00227373	-1.0393e-05	0.00549006	0.000868526	1	13	0.132182	2.03441e-05	-3.88318e-06	0.000986317	0.000141211	6.12163e-05	0.000153909	23.4372	1.35488e-08
7944	6492.62	2507.31	6959.94	-21.1155	26.554	-0.00226124	-1.49561e-05	0.00799048	0.001037	1	13	0.136357	1.95916e-05	-3.87299e-06	0.000264796	0.000134032	5.17604e-05	0.000143679	21.1155	1.8431e-08
5621.06	6954.69	2463.87	7378.23	-19.5079	28.4663	-0.00226104	2.1183e-06	0.0114917	0.00128149	1	13	0.137646	1.86556e-05	-3.86962e-06	0.000505303	0.000127753	4.52598e-05	0.000135534	19.5079	1.17561e-08
3981.27	7361.77	2494.25	7772.84	-18.717	30.7457	-0.00221887	1.04463e-06	0.0160272	0.00165036	1	13	0.137833	1.77327e-05	-3.83558e-06	0.000825979	0.000121849	4.1284e-05	0.000128653	18.717	3.73742e-09
2817.3	7734.1	2632.01	8169.69	-18.794	33.024	-0.00222845	1.79393e-06	0.0214635	0.00222774	1	13	0.137663	1.68504e-05	-3.80969e-06	0.00106649	0.000115878	3.94345e-05	0.000122404	18.794	1.4139e-08
1995.64	8103.37	2905.91	8608.65	-19.7281	35.3037	-0.00220655	1.27195e-06	0.0274446	0.00312716	1	13	0.137393	1.59598e-05	-3.80255e-06	0.000344965	0.000109344	3.92113e-05	0.000116162	19.7281	1.30586e-08
1411.84	8496.64	3347.21	9132.18	-21.5017	37.5822	-0.00221831	1.0017e-06	0.0336784	0.00452449	1	13	0.13712	1.5015e-05	-3.79101e-06	0.00130699	0.000101882	4.0136e-05	0.000109503	21.5017	6.55787e-09
1000.32	8935.36	3984.35	9783.44	-24.0325	39.8597	-0.00221078	1.02588e-06	0.0399322	0.00662301	1	13	0.136873	1.39903e-05	-3.78258e-06	0.000264796	9.33531e-05	4.16269e-05	0.000102214	24.0325	4.58388e-09
707.509	9448.84	4865.98	10628.2	-27.2477	42.1395	-0.00221662	-1.52229e-06	0.0462293	0.00969036	1	13	0.136656	1.28579e-05	-3.76964e-06	0.000986317	8.36489e-05	4.30777e-05	9.40894e-05	27.2477	1.20694e-08
501.444	10062.2	6046.32	11739.1	-31.0014	44.4112	-0.00222913	1.31655e-06	0.0524936	0.0139258	1	13	0.136481	1.16262e-05	-3.75048e-06	0.000344965	7.30172e-05	4.38757e-05	8.51856e-05	31.0014	5.73155e-09
354.66	10810.4	7628.68	13231.1	-35.2098	46.6909	-0.00222538	-3.25963e-06	0.0588246	0.0195554	1	13	0.136339	1.03045e-05	-3.75595e-06	0.000986317	6.1752e-05	4.35771e-05	7.55795e-05	35.2098	3.37877e-09
251.044	11739.1	9720.96	15241.5	-39.6277	48.9599	-0.00221695	3.50953e-07	0.0652169	0.0265292	1	13	0.136222	8.93756e-06	-3.74771e-06	0.00074581	5.05335e-05	4.18461e-05	6.56104e-05	39.6277	5.94133e-09
177.781	12914.7	12474.6	17955.7	-44.007	51.2493	-0.00220348	3.40605e-06	0.0717639	0.0346384	1	13	0.136138	7.58191e-06	-3.74501e-06	-0.000136049	4.00572e-05	3.86922e-05	5.56926e-05	44.007	6.6425e-09
125.846	14408.4	16102.9	21607.9	-48.1787	53.5234	-0.00221762	2.48703e-06	0.0785378	0.0436172	1	13	0.136076	6.29751e-06	-3.74776e-06	0.000505303	3.08595e-05	3.44886e-05	4.62793e-05	48.1787	3.20943e-09
89.116	16382	20847.5	26513.9	-51.8397	55.7947	-0.00221818	-1.7668e-07	0.0856664	0.0529627	1	13	0.136039	5.13083e-06	-3.74243e-06	0.00074581	2.33034e-05	2.96555e-05	3.7716e-05	51.8397	-2.52233e-09
63.0823	19024	27061	33078.9	-54.8927	58.3418	-0.00222948	-1.00922e-06	0.0932327	0.0623958	1	14	0.136348	4.12192e-06	-3.73979e-06	0.000425134	1.7386e-05	2.47311e-05	3.02308e-05	54.8927	-5.53197e-10
44.6712	22583.5	35105.1	41741.8	-57.2463	60.6062	-0.00222924	-2.45759e-07	0.10149	0.0717826	1	14	0.136187	3.26261e-06	-3.74439e-06	0.000344965	1.29613e-05	2.01478e-05	2.39568e-05	57.2463	-7.6321e-10
31.6296	27453.7	45444	53092.9	-58.8629	62.8425	-0.00221863	7.76957e-07	0.110726	0.0811204	1	14	0.136101	2.56346e-06	-3.74767e-06	-0.000136049	9.73929e-06	1.61214e-05	1.88349e-05	58.8629	-2.00606e-09
22.3854	34119.1	58568.9	67782.2	-59.7772	65.0894	-0.00223986	2.91943e-07	0.121391	0.0906339	1	14	0.136042	2.00705e-06	-3.74567e-06	0.000585472	7.42618e-06	1.27478e-05	1.47531e-05	59.7772	-3.68256e-09
15.8576	43213.7	74915.3	86485.4	-60.0222	67.418	-0.00222784	1.05544e-07	0.133972	0.100524	1	14	0.136011	1.57265e-06	-3.74602e-06	0.000585472	5.77745e-06	1.00158e-05	1.15626e-05	60.0222	-2.84919e-09
11.2249	55283.9	95005.7	109920	-59.8048	69.7949	-0.00223406	-2.49553e-07	0.149242	0.11149	1	14	0.135996	1.23723e-06	-3.75121e-06	0.000264796	4.57557e-06	7.86315e-06	9.09753e-06	59.8048	-7.56837e-09
7.93953	70901.8	119437	138897	-59.3052	72.3387	-0.00222641	-1.90977e-06	0.167836	0.124102	1	14	0.13599	9.79072e-07	-3.74289e-06	0.00074581	3.67514e-06	6.19092e-06	7.19959e-06	59.3052	5.90349e-09
5.6205	90466.1	148988	174303	-58.7336	74.2037	-0.00224169	-6.4192e-07	0.190062	0.138863	1	14	0.135985	7.80164e-07	-3.74367e-06	0.000665641	2.97768e-06	4.9039e-06	5.73715e-06	58.7336	-2.29683e-09
3.97785	114050	184876	217225	-58.3296	76.7392	-0.00223329	-5.92905e-07	0.216417	0.156759	1	14	0.135979	6.25984e-07	-3.7443e-06	0.000665641	2.417e-06	3.91798e-06	4.60353e-06	58.3296	9.72602e-09
2.81836	141987	229915	270224	-58.3019	80.2367	-0.0022213	-5.29024e-07	0.245616	0.177804	1	14	0.13598	5.03212e-07	-3.7464e-06	0.00106649	1.94447e-06	3.1486e-06	3.70063e-06	58.3019	1.07791e-08
1.99706	174929	286934	336052	-58.6315	85.0996	-0.00221952	-9.24085e-07	0.277745	0.202487	1	14	0.135979	4.04637e-07	-3.74243e-06	0.000264796	1.54898e-06	2.54079e-06	2.97573e-06	58.6315	1.60578e-08
1.41224	215968	360842	420534	-59.099	91.9051	-0.00221902	-3.69573e-07	0.312317	0.229946	1	14	0.135978	3.23345e-07	-3.7498e-06	0.000184627	1.2212e-06	2.0404e-06	2.37793e-06	59.099	-1.77448e-10
1.00006	266717	455362	527724	-59.6414	101.451	-0.00222053	-1.12259e-07	0.349491	0.260217	1	14	0.135978	2.57669e-07	-3.76365e-06	0.00114665	9.57718e-07	1.6351e-06	1.89493e-06	59.6414	-2.05189e-08