File: data/DE_140_1_30.mpt
EC-Lab ASCII FILE
Nb header lines : 59

Potentio Electrochemical Impedance Spectroscopy

Run on channel : 1 (SN 20909)
User :
CE vs. WE compliance from -10 V to 10 V
Electrode connection : standard
Ewe ctrl range : min = -10.00 V, max = 10.00 V
Acquisition started on : 06/20/2020 10:08:24
Saved on :
	File : DE_140_1_30.mpr
	Directory : P:\Chemistry\Data\VMP3\Kyler\DOE\DE_140\
	Host : 10.0.4.64
Device : VMP3 (SN 1432)
Address : USB
EC-Lab for windows v11.33 (software)
Internet server v11.32 (firmware)
Command interpretor v11.33 (firmware)
Electrode material :
Initial state :
Electrolyte :
Comments :
Electrode surface area : 0.001 cm²
Characteristic mass : 0.001 g
Equivalent Weight : 0.000 g/eq.
Density : 0.000 g/cm3
Record Analogic IN 1
Cycle Definition : Charge/Discharge alternance
Mode                Single sine
E (V)               0.0000
vs.                 Eoc
tE (h:m:s)          0:00:0.0000
record              0
dI                  1.000
unit dI             mA
dt (s)              0.000
fi                  1.000
unit fi             MHz
ff                  1.000
unit ff             Hz
Nd                  20
Points              per decade
spacing             Logarithmic
Va (mV)             128.0
pw                  0.50
Na                  3
corr                0
E range min (V)     -10.000
E range max (V)     10.000
I Range             Auto
Bandwidth           5
nc cycles           0
goto Ns'            0
nr cycles           0
inc. cycle          1

freq/Hz	Re(Z)/Ohm	-Im(Z)/Ohm	|Z|/Ohm	Phase(Z)/deg	time/s	<Ewe>/V	<I>/mA	Cs/µF	Cp/µF	cycle number	I Range	|Ewe|/V	|I|/A	(Q-Qo)/mA.h	Analog IN 1/V	Re(Y)/Ohm-1	Im(Y)/Ohm-1	|Y|/Ohm-1	Phase(Y)/deg	dq/mA.h
1.00002e+06	97.8853	190.325	214.021	-62.7829	1.74749	-0.142069	-0.000395363	0.000836213	0.000661293	1	11	0.00115672	5.40468e-06	-1.11198e-07	0.000102121	0.002137	0.00415511	0.00467244	62.7829	-1.11198e-07
707950	139.602	228.976	268.177	-58.6302	3.53348	-0.140653	-0.000463856	0.00098181	0.000715757	1	11	0.0027715	1.03346e-05	-4.37479e-07	-0.000218689	0.00194111	0.00318382	0.00372888	58.6302	-1.7026e-07
501206	191.624	279.278	338.698	-55.5444	5.32248	-0.139641	-0.000388641	0.00113702	0.000773064	1	11	0.00807078	2.38288e-05	-4.315e-07	2.1919e-05	0.00167042	0.00243451	0.00295248	55.5444	1.37084e-07
354810	257.54	333.971	421.739	-52.3626	7.10948	-0.139128	-0.000416821	0.00134312	0.000842259	1	11	0.0371322	8.80455e-05	-1.13379e-06	0.000663539	0.00144796	0.00187768	0.00237113	52.3626	-2.47829e-07
251188	337.89	388.877	515.165	-49.0131	8.89548	-0.138979	-0.00039797	0.00162933	0.000928413	1	11	0.0815864	0.000158369	-1.07154e-06	0.000182324	0.00127316	0.00146528	0.00194113	49.0131	4.00714e-08
177832	438.886	440.099	621.537	-45.0791	10.9855	-0.138942	-7.58561e-05	0.00203358	0.00101959	1	12	0.0616563	9.91998e-05	-1.2221e-06	-0.000218689	0.0011361	0.00113924	0.00160892	45.0791	-2.2554e-07
125909	548.832	490.62	736.155	-41.7947	12.7735	-0.138865	-2.79255e-05	0.00257642	0.00114438	1	12	0.105645	0.000143509	-1.15145e-06	0.000342729	0.00101275	0.00090533	0.00135841	41.7947	-1.2537e-07
89129.3	670.836	535.528	858.377	-38.6004	14.4245	-0.13878	-5.19085e-05	0.0033344	0.00129785	1	12	0.130271	0.000151765	-9.69824e-07	0.000262526	0.000910459	0.000726819	0.00116499	38.6004	-1.21876e-07
63093.8	803.518	573.37	987.114	-35.5107	16.2105	-0.13866	-3.12857e-05	0.00439945	0.00148434	1	12	0.129989	0.000131686	-6.64051e-07	-0.000138486	0.000824633	0.000588437	0.00101305	35.5107	1.08247e-07
44666.7	945.186	603.613	1121.48	-32.563	17.9965	-0.138614	-5.7024e-05	0.00590307	0.00171005	1	12	0.129515	0.000115485	-5.39091e-07	0.000102121	0.000751504	0.000479924	0.000891676	32.563	-7.59909e-08
31621.1	1093.85	625.459	1260.04	-29.7608	19.6485	-0.138603	-6.70282e-05	0.00804718	0.00198277	1	12	0.12995	0.000103132	-8.17673e-07	0.000182324	0.00068895	0.000393939	0.000793625	29.7608	-8.6318e-08
22389	1247.97	637.017	1401.15	-27.0417	21.1655	-0.138592	-3.44971e-05	0.0111592	0.00230657	1	12	0.133431	9.52299e-05	-8.82698e-07	-0.000218689	0.000635675	0.000324475	0.000713699	27.0417	-7.53275e-08
15847.7	1403.21	637.434	1541.21	-24.4308	22.5445	-0.138587	-4.2056e-05	0.015755	0.00269506	1	12	0.140687	9.1284e-05	-6.91238e-07	-0.000459296	0.000590746	0.000268358	0.000648842	24.4308	6.17739e-08
11217.7	1556.35	627.069	1677.93	-21.945	24.0595	-0.138591	-4.22242e-05	0.0226256	0.00315999	1	12	0.130824	7.79677e-05	-6.18587e-07	-0.000138486	0.000552791	0.000222725	0.000595974	21.945	5.4751e-08
7944	1701.76	606.396	1806.57	-19.6127	25.528	-0.138543	-5.71368e-05	0.0330388	0.00372243	1	12	0.131572	7.28297e-05	-6.64183e-07	-5.82835e-05	0.00052142	0.0001858	0.000553534	19.6127	3.20821e-08
5621.06	1836.81	579.992	1926.2	-17.5241	27.4403	-0.138516	-6.8802e-05	0.0488181	0.0044261	1	12	0.131657	6.83506e-05	-7.34771e-07	0.000182324	0.000495063	0.000156322	0.000519157	17.5241	6.54406e-10
3981.27	1957.16	552.529	2033.65	-15.765	29.7207	-0.13853	-5.80891e-05	0.0723507	0.00534071	1	12	0.131571	6.46969e-05	-6.44227e-07	0.000262526	0.000473229	0.000133598	0.000491726	15.765	1.93967e-08
2817.3	2065.8	529.201	2132.5	-14.3686	32.0009	-0.138526	-0.00011606	0.10675	0.00657399	1	12	0.131452	6.16422e-05	-6.33609e-07	-0.000138486	0.000454264	0.00011637	0.000468933	14.3686	-3.04262e-08
1995.64	2162.46	516.854	2223.37	-13.4422	34.2807	-0.138508	-2.78165e-05	0.154302	0.00833842	1	12	0.131343	5.90738e-05	-7.36491e-07	0.000102121	0.000437447	0.000104555	0.000449768	13.4422	2.17511e-09
1411.84	2253.51	519.213	2312.55	-12.9746	36.5622	-0.138522	-4.18518e-05	0.217115	0.0109446	1	12	0.131261	5.67602e-05	-7.42458e-07	2.1919e-05	0.000421383	9.70876e-05	0.000432423	12.9746	2.45115e-08
1000.32	2341.98	537.254	2402.82	-12.9202	38.8397	-0.138528	-6.76081e-05	0.296143	0.0148054	1	12	0.131201	5.46031e-05	-7.5562e-07	-0.000459296	0.000405641	9.30546e-05	0.000416178	12.9202	1.69326e-08
707.509	2431.69	575.384	2498.84	-13.3124	41.1204	-0.138508	-6.29421e-05	0.390958	0.0207286	1	12	0.131157	5.24874e-05	-7.6002e-07	-0.000218689	0.000389433	9.21471e-05	0.000400186	13.3124	4.65994e-09
501.444	2526.89	634.304	2605.29	-14.0913	43.3922	-0.138515	-5.02879e-05	0.50038	0.0296609	1	12	0.131128	5.03315e-05	-7.84876e-07	2.1919e-05	0.000372285	9.34515e-05	0.000383835	14.0913	2.87209e-08
354.66	2627.78	718.652	2724.27	-15.2954	45.672	-0.138511	-9.20392e-05	0.624438	0.0434536	1	12	0.131103	4.81239e-05	-9.10014e-07	0.000102121	0.000354068	9.68317e-05	0.00036707	15.2954	-4.50262e-08
251.044	2738.65	828.871	2861.34	-16.8388	48.1909	-0.138517	-1.45219e-06	0.764861	0.0641829	1	13	0.131585	4.59872e-05	-9.09262e-07	-0.000138486	0.000334502	0.000101239	0.000349487	16.8388	3.2583e-08
177.781	2854.95	977.76	3017.74	-18.9052	50.4822	-0.138524	3.0236e-06	0.915592	0.0961173	1	13	0.131453	4.35602e-05	-8.78712e-07	-0.000619701	0.000313498	0.000107366	0.000331373	18.9052	-3.93625e-08
125.846	2977.08	1177.86	3201.62	-21.5859	52.7574	-0.138518	-6.78658e-06	1.07371	0.145324	1	13	0.131356	4.10279e-05	-8.54046e-07	0.000422931	0.000290437	0.000114909	0.000312342	21.5859	3.53143e-08
89.116	3102.22	1451.3	3424.91	-25.0715	55.0297	-0.138521	-7.91562e-07	1.23057	0.220965	1	13	0.131277	3.833e-05	-8.57782e-07	0.000422931	0.000264468	0.000123725	0.000291978	25.0715	-3.59515e-08
63.0823	3231.11	1831.36	3714.02	-29.5441	57.3258	-0.138509	-4.4349e-06	1.37765	0.334964	1	13	0.131216	3.53298e-05	-8.4593e-07	0.000342729	0.000234241	0.000132765	0.00026925	29.5441	-7.9841e-09
44.6712	3365.22	2361.61	4111.19	-35.0601	59.5902	-0.138534	3.12977e-06	1.50863	0.497812	1	13	0.131168	3.19051e-05	-8.88323e-07	0.000422931	0.000199103	0.000139725	0.000243238	35.0601	-1.00333e-08
31.6296	3507.12	3105.22	4684.26	-41.5219	61.8275	-0.138522	-7.49793e-06	1.62044	0.712095	1	13	0.131128	2.79934e-05	-9.30531e-07	0.000262526	0.000159834	0.000141518	0.000213481	41.5219	-2.92382e-08
22.3854	3663.59	4148.39	5534.52	-48.5512	64.0754	-0.138513	-9.64278e-06	1.71386	0.962884	1	13	0.131095	2.36868e-05	-9.04372e-07	2.1919e-05	0.000119604	0.000135431	0.000180684	48.5512	-1.30873e-08
15.8576	3844.43	5606.48	6797.96	-55.5611	66.404	-0.138516	-6.91219e-06	1.79016	1.21763	1	13	0.131073	1.92812e-05	-9.46982e-07	0.000503134	8.31906e-05	0.00012132	0.000147103	55.5611	-8.19963e-08
11.2249	4065.87	7654.54	8667.37	-62.0241	68.7809	-0.138524	-4.12003e-06	1.85234	1.44472	1	13	0.131056	1.51207e-05	-9.6335e-07	-5.82835e-05	5.41226e-05	0.000101893	0.000115375	62.0241	-9.48269e-08
7.93953	4347.03	10514	11377.2	-67.5372	71.3247	-0.138514	-5.84482e-06	1.90659	1.62826	1	13	0.131039	1.15177e-05	-9.32356e-07	-0.000379094	3.35833e-05	8.12264e-05	8.78952e-05	67.5372	-1.85344e-08
5.6205	4732.43	14486.6	15239.9	-71.909	73.1897	-0.138513	-1.61216e-05	1.9547	1.76621	1	13	0.131037	8.59826e-06	-8.517e-07	-0.000539499	2.03759e-05	6.23732e-05	6.5617e-05	71.909	2.63813e-08
3.97785	5248.41	20008.3	20685.2	-75.3018	75.7252	-0.13852	-1.25409e-05	1.99969	1.87095	1	13	0.131027	6.33434e-06	-9.56758e-07	-0.000379094	1.22662e-05	4.67618e-05	4.83438e-05	75.3018	3.13457e-08
2.81836	6002.98	27684.9	28328.2	-77.7658	79.6277	-0.138502	-2.8048e-06	2.03977	1.94817	1	14	0.131051	4.62618e-06	-9.68922e-07	2.1919e-05	7.48045e-06	3.44988e-05	3.53005e-05	77.7658	-1.75436e-08
1.99706	7044.55	38310.8	38953.1	-79.5809	84.4896	-0.1385	2.75373e-07	2.08021	2.01218	1	14	0.131039	3.36401e-06	-9.42735e-07	2.1919e-05	4.64269e-06	2.52486e-05	2.56719e-05	79.5809	-4.84008e-08
1.41224	8595.02	53068.2	53759.7	-80.8002	91.2962	-0.138498	-8.96702e-07	2.12363	2.06934	1	14	0.131033	2.43738e-06	-8.381e-07	0.000583336	2.97394e-06	1.8362e-05	1.86013e-05	80.8002	1.31714e-07
1.00006	10841.8	73402.2	74198.5	-81.598	100.842	-0.138497	4.70368e-07	2.16812	2.12183	1	14	0.13103	1.76594e-06	-8.7684e-07	0.000182324	1.96929e-06	1.33327e-05	1.34774e-05	81.598	1.34794e-08