File: data/DE_65_8_60.mpt
EC-Lab ASCII FILE
Nb header lines : 60

Potentio Electrochemical Impedance Spectroscopy

Run on channel : 4 (SN 4192)
User :
CE vs. WE compliance from -10 V to 10 V
Electrode connection : standard
Ewe ctrl range : min = -10.00 V, max = 10.00 V
Acquisition started on : 02/20/2020 14:50:54
Technique started on : 02/20/2020 14:50:55
Saved on :
	File : DE_65_8_60.mpr
	Directory : P:\Chemistry\Data\VMP3\Kyler\DOE\DE_65\60C\
	Host : 10.0.4.64
Device : VMP3 (SN 1432)
Address : USB
EC-Lab for windows v11.33 (software)
Internet server v11.32 (firmware)
Command interpretor v11.33 (firmware)
Electrode material :
Initial state :
Electrolyte :
Comments :
Electrode surface area : 0.001 cm²
Characteristic mass : 0.001 g
Equivalent Weight : 0.000 g/eq.
Density : 0.000 g/cm3
Record Analogic IN 1
Cycle Definition : Charge/Discharge alternance
Mode                Single sine
E (V)               0.0000
vs.                 Eoc
tE (h:m:s)          0:00:0.0000
record              0
dI                  1.000
unit dI             mA
dt (s)              0.000
fi                  1.000
unit fi             MHz
ff                  1.000
unit ff             Hz
Nd                  20
Points              per decade
spacing             Logarithmic
Va (mV)             128.0
pw                  0.50
Na                  3
corr                0
E range min (V)     -10.000
E range max (V)     10.000
I Range             Auto
Bandwidth           5
nc cycles           0
goto Ns'            0
nr cycles           0
inc. cycle          1

freq/Hz	Re(Z)/Ohm	-Im(Z)/Ohm	|Z|/Ohm	Phase(Z)/deg	time/s	<Ewe>/V	<I>/mA	Cs/µF	Cp/µF	cycle number	I Range	|Ewe|/V	|I|/A	(Q-Qo)/mA.h	Analog IN 1/V	Re(Y)/Ohm-1	Im(Y)/Ohm-1	|Y|/Ohm-1	Phase(Y)/deg	dq/mA.h
1.00002e+06	125.864	134.64	184.309	-46.9294	1.95048	-0.307483	0.000684787	0.00118206	0.000630804	1	11	0.00520415	2.8236e-05	1.60302e-07	-0.000885539	0.00370519	0.00396353	0.00542568	46.9294	1.60302e-07
707950	165.779	146.549	221.267	-41.4767	3.73649	-0.306931	0.00155916	0.00153404	0.000672924	1	11	0.0147477	6.66511e-05	5.71935e-07	-0.000564764	0.00338607	0.00299329	0.00451943	41.4767	1.79723e-07
501206	210.372	155.35	261.515	-36.4441	5.52248	-0.306632	0.00188282	0.00204406	0.00072131	1	11	0.0319822	0.000122296	1.54925e-06	-0.000404376	0.00307607	0.00227153	0.00382387	36.4441	3.96992e-07
354810	260.083	156.391	303.482	-31.019	7.30947	-0.306488	0.00222825	0.00286822	0.000761675	1	11	0.0570618	0.000188024	2.8763e-06	-0.000324182	0.00282388	0.00169803	0.00329509	31.019	3.67894e-07
251188	304.192	145.893	337.368	-25.6227	9.09649	-0.306508	0.00227181	0.00434299	0.000812171	1	11	0.091037	0.000269845	4.25641e-06	-8.36012e-05	0.00267263	0.00128182	0.00296412	25.6227	5.67515e-07
177832	340.192	129.096	363.863	-20.7808	10.6105	-0.30651	0.00219252	0.00693263	0.000872666	1	11	0.13521	0.000371597	5.3304e-06	-0.000163795	0.0025695	0.000975074	0.00274829	20.7808	4.76417e-07
125909	366.396	110.446	382.681	-16.7749	12.3995	-0.306451	0.00229861	0.0114449	0.000953324	1	11	0.129621	0.000338718	5.72796e-06	7.67863e-05	0.00250194	0.000754186	0.00261314	16.7749	2.82039e-07
89129.3	386.129	93.6481	397.323	-13.6328	14.1875	-0.306424	0.00228111	0.0190678	0.00105928	1	11	0.129334	0.000325512	7.33306e-06	-0.000404376	0.00244593	0.000593214	0.00251684	13.6328	1.10297e-06
63093.8	400.725	79.9535	408.624	-11.2836	15.8385	-0.306415	0.00230214	0.0315497	0.00120788	1	11	0.130216	0.000318671	8.53996e-06	-0.000163795	0.00239994	0.000478841	0.00244724	11.2836	8.70949e-08
44666.7	411.474	70.0214	417.389	-9.65763	17.3535	-0.30642	0.0023001	0.0508868	0.00143214	1	11	0.136994	0.000328216	8.76374e-06	-0.000965732	0.00236189	0.000401929	0.00239585	9.65763	2.33261e-07
31621.1	419.777	64.0425	424.634	-8.67434	18.8695	-0.306411	0.00232057	0.0785912	0.00178765	1	11	0.139426	0.000328345	9.35668e-06	-0.000163795	0.00232803	0.000355172	0.00235497	8.67434	2.29481e-08
22389	427.01	62.2873	431.529	-8.29911	20.3845	-0.306399	0.00221504	0.114126	0.00237774	1	11	0.135223	0.000313358	1.00658e-05	-0.000243989	0.00229307	0.000334487	0.00231734	8.29911	4.77878e-07
15847.7	432.897	64.6056	437.691	-8.48818	21.7635	-0.306408	0.00227497	0.155448	0.0033868	1	11	0.140669	0.000321388	1.08192e-05	-0.000163795	0.00225969	0.000337237	0.00228472	8.48818	9.79877e-08
11217.7	439.952	72.142	445.828	-9.3123	23.5785	-0.306369	0.000186264	0.196665	0.00514955	1	12	0.13135	0.00029462	1.11811e-05	-0.000805345	0.00221346	0.000362956	0.00224302	9.3123	-2.27744e-07
7944	445.781	84.8163	453.778	-10.7726	25.2	-0.306318	0.000254164	0.236212	0.00825226	1	12	0.129246	0.000284821	1.10765e-05	-0.000725151	0.00216488	0.0004119	0.00220372	10.7726	-2.52968e-07
5621.06	452.116	104.586	464.055	-13.0249	27.1123	-0.306298	0.000297437	0.270724	0.0137511	1	12	0.134404	0.00028963	1.13674e-05	-0.000725151	0.00209948	0.000485665	0.00215492	13.0249	2.45036e-07
3981.27	459.169	133.368	478.145	-16.1962	29.3927	-0.306299	0.000306452	0.299742	0.02332	1	12	0.136804	0.000286115	1.1877e-05	-0.00048457	0.00200841	0.000583353	0.00209142	16.1962	-5.57359e-08
2817.3	467.668	174.382	499.121	-20.4493	31.6729	-0.306317	0.000270425	0.323956	0.0395437	1	12	0.137632	0.000275748	1.19048e-05	-0.000805345	0.00187726	0.000699986	0.00200352	20.4493	-1.40496e-07
1995.64	478.468	231.574	531.562	-25.8265	33.9527	-0.306302	0.000290617	0.344389	0.0653612	1	12	0.137612	0.000258883	1.18584e-05	-0.000725151	0.00169334	0.000819561	0.00188125	25.8265	-8.47326e-08
1411.84	493.16	311.083	583.078	-32.2435	36.2342	-0.306313	0.000306543	0.362376	0.103147	1	12	0.137149	0.000235216	1.24161e-05	-0.000243989	0.00145056	0.000915004	0.00171504	32.2435	2.37599e-07
1000.32	513.463	419.706	663.173	-39.2626	38.5117	-0.306295	0.000295515	0.379084	0.151835	1	12	0.136495	0.000205821	1.28048e-05	-0.000965732	0.0011675	0.000954316	0.0015079	39.2626	2.41613e-07
707.509	542.863	569.022	786.439	-46.3477	40.7925	-0.306292	0.000281692	0.395329	0.20696	1	12	0.135834	0.00017272	1.3145e-05	-3.40745e-06	0.000877729	0.000920023	0.00127155	46.3477	1.38792e-07
501.444	586.483	771.032	968.738	-52.7417	43.0642	-0.306297	0.000282101	0.411647	0.26077	1	12	0.135286	0.000139652	1.33946e-05	-8.36012e-05	0.000624947	0.000821599	0.00103227	52.7417	1.74122e-07
354.66	652.584	1045.28	1232.26	-58.0228	45.3439	-0.306289	0.00027545	0.429316	0.308911	1	12	0.1349	0.000109473	1.33705e-05	-0.000324182	0.000429765	0.000688376	0.000811516	58.0228	1.4633e-08
251.044	754.289	1412.28	1601.09	-61.8936	47.6129	-0.306298	0.000258703	0.4489	0.349269	1	12	0.13465	8.40993e-05	1.36777e-05	-0.000324182	0.000294244	0.000550922	0.000624576	61.8936	1.50512e-07
177.781	910.083	1898.2	2105.09	-64.3848	49.9043	-0.306291	0.000354096	0.47162	0.383472	1	12	0.134503	6.38942e-05	1.38115e-05	-0.000564764	0.000205371	0.000428351	0.000475038	64.3848	9.57869e-09
125.846	1148.17	2532.77	2780.87	-65.6139	52.4294	-0.306302	2.79785e-05	0.499329	0.414207	1	13	0.135298	4.86534e-05	1.39494e-05	-0.000243989	0.000148473	0.000327518	0.0003596	65.6139	1.56443e-08
89.116	1506.78	3344.86	3668.58	-65.7495	54.7007	-0.306299	2.97775e-05	0.533933	0.443861	1	13	0.134847	3.67572e-05	1.39871e-05	-0.000324182	0.000111958	0.000248532	0.000272585	65.7495	1.05569e-08
63.0823	2037.47	4352.73	4805.99	-64.9161	56.9968	-0.306295	2.60207e-05	0.57963	0.475454	1	13	0.134599	2.80065e-05	1.40063e-05	-0.000965732	8.82117e-05	0.00018845	0.000208074	64.9161	1.99605e-08
44.6712	2787.8	5567.24	6226.23	-63.4005	59.2612	-0.306293	3.04457e-05	0.63996	0.51166	1	13	0.134475	2.15981e-05	1.39951e-05	-0.000644957	7.19136e-05	0.000143611	0.000160611	63.4005	1.33777e-08
31.6296	3792.35	6983.07	7946.39	-61.4946	61.4974	-0.306296	2.73167e-05	0.720578	0.556459	1	13	0.134407	1.69142e-05	1.39976e-05	-0.000324182	6.00577e-05	0.000110588	0.000125843	61.4946	-1.2452e-08
22.3854	5053.01	8608.53	9981.97	-59.588	63.7454	-0.306301	2.69366e-05	0.825898	0.614259	1	13	0.134369	1.34612e-05	1.40229e-05	7.67863e-05	5.07128e-05	8.63965e-05	0.000100181	59.588	3.14089e-08
15.8576	6505.77	10453.4	12312.6	-58.1036	66.0729	-0.306308	2.73965e-05	0.960118	0.692062	1	13	0.134347	1.09114e-05	1.40044e-05	-0.000163795	4.29143e-05	6.89544e-05	8.12179e-05	58.1036	-4.98362e-08
11.2249	8110.21	12719.8	15085.4	-57.4782	68.4499	-0.306312	2.19917e-05	1.1147	0.792513	1	13	0.134335	8.90498e-06	1.4034e-05	-0.00048457	3.56384e-05	5.58943e-05	6.62893e-05	57.4782	-3.81981e-08
7.93953	9804.16	15618.2	18440.4	-57.8818	70.9927	-0.306295	2.502e-05	1.2835	0.920692	1	13	0.134336	7.28488e-06	1.40502e-05	-3.40745e-06	2.88317e-05	4.59292e-05	5.42288e-05	57.8818	-2.3475e-08
5.6205	11594.8	19490.8	22678.8	-59.2522	72.8577	-0.306314	3.43135e-05	1.45284	1.07308	1	13	0.134335	5.9234e-06	1.41348e-05	0.000477755	2.25435e-05	3.78956e-05	4.4094e-05	59.2522	3.47799e-08
3.97785	13600.5	24786.2	28272.4	-61.2459	75.6942	-0.30629	-2.14381e-06	1.61422	1.24067	1	14	0.134355	4.75216e-06	1.40879e-05	-0.00048457	1.70149e-05	3.10088e-05	3.53702e-05	61.2459	3.02041e-08
2.81836	15963.7	32060.6	35815.1	-63.5303	79.1926	-0.306288	3.33195e-06	1.76138	1.41144	1	14	0.134345	3.75109e-06	1.40908e-05	-0.00048457	1.24452e-05	2.49942e-05	2.79212e-05	63.5303	-1.0184e-07
1.99706	18914.6	41925.6	45994.8	-65.7176	84.0536	-0.306287	3.7836e-06	1.90086	1.5794	1	14	0.134341	2.92078e-06	1.40918e-05	-0.000404376	8.94088e-06	1.98181e-05	2.17416e-05	65.7176	-8.60153e-08
1.41224	22805.9	55317.3	59834.1	-67.5949	90.8611	-0.306282	4.83249e-06	2.03728	1.74131	1	14	0.134337	2.24515e-06	1.41844e-05	-3.40745e-06	6.37017e-06	1.54513e-05	1.67129e-05	67.5949	8.06327e-08
1.00006	27988.1	73167.7	78338	-69.0672	100.407	-0.306282	3.93747e-06	2.17507	1.89743	1	14	0.134332	1.71477e-06	1.42199e-05	-0.000644957	4.56066e-06	1.19227e-05	1.27652e-05	69.0672	8.35695e-08