File: data/DE_65_5_60.mpt
EC-Lab ASCII FILE
Nb header lines : 60

Potentio Electrochemical Impedance Spectroscopy

Run on channel : 4 (SN 4192)
User :
CE vs. WE compliance from -10 V to 10 V
Electrode connection : standard
Ewe ctrl range : min = -10.00 V, max = 10.00 V
Acquisition started on : 02/20/2020 14:56:21
Technique started on : 02/20/2020 14:56:22
Saved on :
	File : DE_65_5_60.mpr
	Directory : P:\Chemistry\Data\VMP3\Kyler\DOE\DE_65\60C\
	Host : 10.0.4.64
Device : VMP3 (SN 1432)
Address : USB
EC-Lab for windows v11.33 (software)
Internet server v11.32 (firmware)
Command interpretor v11.33 (firmware)
Electrode material :
Initial state :
Electrolyte :
Comments :
Electrode surface area : 0.001 cm²
Characteristic mass : 0.001 g
Equivalent Weight : 0.000 g/eq.
Density : 0.000 g/cm3
Record Analogic IN 1
Cycle Definition : Charge/Discharge alternance
Mode                Single sine
E (V)               0.0000
vs.                 Eoc
tE (h:m:s)          0:00:0.0000
record              0
dI                  1.000
unit dI             mA
dt (s)              0.000
fi                  1.000
unit fi             MHz
ff                  1.000
unit ff             Hz
Nd                  20
Points              per decade
spacing             Logarithmic
Va (mV)             128.0
pw                  0.50
Na                  3
corr                0
E range min (V)     -10.000
E range max (V)     10.000
I Range             Auto
Bandwidth           5
nc cycles           0
goto Ns'            0
nr cycles           0
inc. cycle          1

freq/Hz	Re(Z)/Ohm	-Im(Z)/Ohm	|Z|/Ohm	Phase(Z)/deg	time/s	<Ewe>/V	<I>/mA	Cs/µF	Cp/µF	cycle number	I Range	|Ewe|/V	|I|/A	(Q-Qo)/mA.h	Analog IN 1/V	Re(Y)/Ohm-1	Im(Y)/Ohm-1	|Y|/Ohm-1	Phase(Y)/deg	dq/mA.h
1.00002e+06	101.903	46.5532	112.033	-24.5528	1.95148	-0.0305003	0.00033675	0.00341871	0.000590297	1	11	0.00339808	3.03311e-05	1.44333e-07	-0.000644957	0.00811885	0.00370901	0.00892595	24.5528	1.44333e-07
707950	112.347	37.9979	118.599	-18.6865	3.73849	-0.0299028	0.00118153	0.0059164	0.000607319	1	11	0.00922848	7.78126e-05	7.77419e-07	-0.000404376	0.00798731	0.00270147	0.00843179	18.6865	2.47863e-07
501206	123.003	32.9862	127.349	-15.012	5.52647	-0.0296736	0.00181842	0.00962656	0.000645869	1	11	0.0205983	0.000161747	1.2234e-06	7.67863e-05	0.00758444	0.00203395	0.00785243	15.012	1.75185e-07
354810	131.22	28.0924	134.194	-12.0838	7.31449	-0.0294719	0.00185304	0.0159674	0.000699758	1	11	0.038386	0.000286049	1.69203e-06	-0.000805345	0.00728679	0.00156	0.00745191	12.0838	3.74437e-07
251188	137.144	23.2612	139.103	-9.62642	9.10047	-0.0294752	0.00192433	0.0272389	0.000761698	1	11	0.0642638	0.000461987	2.88274e-06	-0.000564764	0.0070877	0.00120216	0.00718892	9.62642	9.25364e-07
177832	140.922	18.8879	142.182	-7.63387	10.8875	-0.0294995	0.00203675	0.0473836	0.000836183	1	11	0.0989961	0.000696261	4.80457e-06	-3.40745e-06	0.00697088	0.00093431	0.00703322	7.63387	1.76824e-07
125909	143.445	15.2877	144.257	-6.08336	12.5415	-0.0294559	0.00183631	0.0826837	0.0009286	1	11	0.129004	0.000894259	5.48201e-06	-3.40745e-06	0.00689302	0.000734626	0.00693205	6.08336	1.40724e-06
89129.3	145.346	12.4957	145.882	-4.91377	14.3275	-0.0294169	0.00192118	0.142902	0.00104847	1	11	0.129538	0.000887962	7.33527e-06	-0.000965732	0.00682966	0.000587162	0.00685485	4.91377	-1.77825e-07
63093.8	146.729	10.4652	147.102	-4.07961	16.1135	-0.0293981	0.00180672	0.241038	0.00121996	1	11	0.129515	0.000880446	8.7694e-06	-0.000163795	0.00678079	0.000483628	0.00679802	4.07961	6.53322e-07
44666.7	147.788	9.13495	148.07	-3.53702	17.6275	-0.0293892	0.00210469	0.390059	0.00148459	1	11	0.1399	0.00094482	8.52627e-06	0.000237174	0.00674069	0.00041665	0.00675355	3.53702	1.78247e-07
31621.1	148.724	8.45209	148.964	-3.25266	19.2775	-0.0293704	0.00188172	0.595496	0.00191709	1	11	0.129674	0.000870504	1.03129e-05	-0.000564764	0.00670221	0.000380891	0.00671303	3.25266	1.44572e-06
22389	149.582	8.32875	149.813	-3.18695	20.7935	-0.0293749	0.00191951	0.853503	0.00263793	1	11	0.133604	0.000891799	1.09775e-05	-0.000163795	0.00666464	0.000371089	0.00667497	3.18695	-3.19262e-07
15847.7	150.581	8.73502	150.834	-3.31994	22.3095	-0.0293643	0.00188451	1.14972	0.00385585	1	11	0.129583	0.000859109	1.17402e-05	-0.000163795	0.00661868	0.000383943	0.00662981	3.31994	1.11254e-06
11217.7	151.573	9.65	151.88	-3.64286	23.6885	-0.029375	0.00189736	1.47024	0.00593532	1	11	0.13464	0.000886493	1.19335e-05	-0.000163795	0.00657086	0.000418339	0.00658416	3.64286	-5.48364e-07
7944	152.763	11.1282	153.168	-4.16639	25.157	-0.0292982	0.0024183	1.80035	0.00950314	1	11	0.137358	0.000896777	1.22652e-05	-0.000243989	0.00651151	0.000474336	0.00652877	4.16639	-3.7795e-07
5621.06	154.145	13.2575	154.714	-4.91569	27.0692	-0.02927	0.00228467	2.13571	0.015682	1	11	0.138744	0.000896776	1.37216e-05	7.67863e-05	0.00643975	0.000553858	0.00646352	4.91569	3.1271e-07
3981.27	155.792	16.1743	156.629	-5.92721	29.3497	-0.0292676	0.00232803	2.47157	0.0263559	1	11	0.139413	0.000890081	1.36424e-05	-0.00048457	0.00635038	0.000659296	0.00638451	5.92721	1.93569e-07
2817.3	157.801	20.0661	159.072	-7.24686	31.6299	-0.0292785	0.00225209	2.8153	0.0447984	1	11	0.139712	0.000878292	1.49696e-05	7.67863e-05	0.00623624	0.000793003	0.00628646	7.24686	1.08034e-06
1995.64	160.274	25.1822	162.24	-8.92929	33.9097	-0.0292629	0.0023619	3.16698	0.0762982	1	11	0.139827	0.000861849	1.66939e-05	-0.000324182	0.006089	0.000956701	0.0061637	8.92929	5.43583e-07
1411.84	163.356	31.8771	166.437	-11.0419	36.1912	-0.0292701	0.00210506	3.53636	0.129722	1	11	0.139856	0.000840295	1.68622e-05	-0.000885539	0.00589704	0.00115074	0.00600827	11.0419	-2.26294e-07
1000.32	167.003	40.4846	171.84	-13.6267	38.4687	-0.0292632	0.0021099	3.92999	0.218133	1	11	0.139847	0.000813819	1.71559e-05	-0.000324182	0.00565556	0.00137101	0.00581936	13.6267	-2.51749e-07
707.509	171.338	51.6686	178.959	-16.7812	40.7494	-0.0292714	0.00212851	4.35373	0.362919	1	11	0.139808	0.00078123	1.78688e-05	0.000397561	0.00534992	0.00161332	0.00558788	16.7812	1.64793e-07
501.444	176.062	66.3647	188.155	-20.6534	43.0212	-0.0292752	0.00227256	4.78256	0.594984	1	11	0.139768	0.000742834	1.88533e-05	-0.000564764	0.00497321	0.0018746	0.00531478	20.6534	-1.3681e-07
354.66	181.052	86.3415	200.586	-25.4959	45.3009	-0.0292756	0.00241029	5.19743	0.963	1	11	0.139729	0.000696602	2.15243e-05	-0.000644957	0.00449989	0.00214594	0.00498539	25.4959	7.86771e-07
251.044	186.035	113.791	218.076	-31.4527	47.5699	-0.0292652	0.00252903	5.57136	1.51691	1	11	0.139695	0.000640578	2.20904e-05	-0.00048457	0.0039118	0.00239272	0.00458555	31.4527	-1.75434e-07
177.781	191.349	152.133	244.456	-38.4866	49.8623	-0.0292675	0.00251004	5.88453	2.27906	1	11	0.139659	0.000571307	2.29345e-05	-0.000725151	0.00320202	0.00254578	0.00409072	38.4866	7.29691e-07
125.846	197.255	206.089	285.275	-46.2547	52.3874	-0.0292774	0.000285256	6.13659	3.20264	1	12	0.140324	0.000491891	2.32768e-05	-0.00048457	0.00242381	0.00253236	0.00350539	46.2547	-8.7788e-07
89.116	203.878	281.592	347.65	-54.0947	54.6598	-0.0292815	0.000277581	6.34226	4.16103	1	12	0.140053	0.000402857	2.38567e-05	-0.000163795	0.00168689	0.0023299	0.00287646	54.0947	-1.82484e-07
63.0823	211.912	387.652	441.793	-61.3365	56.9558	-0.0292849	0.000281399	6.50835	5.01092	1	12	0.139851	0.000316553	2.42115e-05	-0.000324182	0.00108572	0.00198612	0.0022635	61.3365	1.2425e-07
44.6712	222.283	535.989	580.253	-67.4754	59.2212	-0.0292851	0.00029097	6.64717	5.6717	1	12	0.139726	0.000240802	2.40578e-05	-0.000243989	0.000660194	0.00159192	0.00172339	67.4754	1.20177e-07
31.6296	235.973	743.357	779.912	-72.3884	61.4584	-0.0292814	0.000288864	6.76908	6.14941	1	12	0.139649	0.000179058	2.4117e-05	-0.00048457	0.000387945	0.0012221	0.0012822	72.3884	-1.20848e-07
22.3854	255.388	1033.63	1064.72	-76.1214	63.7064	-0.0292774	0.000275097	6.87843	6.48268	1	12	0.139599	0.000131114	2.43582e-05	-0.000564764	0.000225285	0.000911799	0.000939218	76.1214	3.67458e-07
15.8576	282.642	1437.1	1464.63	-78.8734	66.0349	-0.0292898	0.000296351	6.98387	6.72378	1	12	0.139577	9.52985e-05	2.41833e-05	-0.00048457	0.000131759	0.000669932	0.000682765	78.8734	-4.31777e-07
11.2249	322.925	2002.85	2028.71	-80.8409	68.4119	-0.0292823	0.000271575	7.07931	6.89994	1	12	0.139563	6.87936e-05	2.45947e-05	-0.000564764	7.8462e-05	0.000486638	0.000492923	80.8409	-1.50275e-07
7.93953	380.576	2789.12	2814.97	-82.23	71.2577	-0.0292817	2.27385e-05	7.18716	7.05579	1	13	0.139622	4.95997e-05	2.50441e-05	-0.000965732	4.80279e-05	0.000351982	0.000355244	82.23	1.50563e-07
5.6205	458.092	3897.34	3924.17	-83.2962	73.1226	-0.0292929	0.000120913	7.26568	7.16667	1	13	0.139584	3.55702e-05	2.46854e-05	-0.000324182	2.97479e-05	0.000253089	0.000254831	83.2962	-1.0536e-07
3.97785	600.494	5421.03	5454.19	-83.6791	75.6582	-0.0292695	-7.28503e-05	7.38057	7.2911	1	13	0.139565	2.55887e-05	2.50814e-05	7.67863e-05	2.01859e-05	0.000182231	0.000183345	83.6791	-1.85453e-07
2.81836	776.559	7515.33	7555.35	-84.1006	79.1566	-0.029276	3.80506e-06	7.51407	7.43469	1	13	0.139561	1.84718e-05	2.5158e-05	-0.000324182	1.3604e-05	0.000131656	0.000132357	84.1006	2.52154e-09
1.99706	1061.5	10407.2	10461.2	-84.1761	84.0197	-0.0292674	5.97522e-06	7.65766	7.57881	1	13	0.139558	1.33406e-05	2.49436e-05	0.00015698	9.69973e-06	9.50982e-05	9.55916e-05	84.1761	-3.66878e-07
1.41224	1452.29	14418.7	14491.6	-84.2484	90.8261	-0.0292699	3.07802e-05	7.81605	7.73755	1	13	0.139555	9.63002e-06	2.48359e-05	-0.000805345	6.91545e-06	6.8658e-05	6.90054e-05	84.2484	-4.52572e-07
1.00006	2077.54	19975	20082.7	-84.0622	100.372	-0.029266	2.87444e-05	7.96721	7.88195	1	13	0.139555	6.94901e-06	2.54205e-05	-0.000404376	5.15114e-06	4.95269e-05	4.9794e-05	84.0622	5.51703e-07