File: data/DE_65_11_60.mpt
EC-Lab ASCII FILE
Nb header lines : 60

Potentio Electrochemical Impedance Spectroscopy

Run on channel : 3 (SN 20921)
User :
CE vs. WE compliance from -10 V to 10 V
Electrode connection : standard
Ewe ctrl range : min = -10.00 V, max = 10.00 V
Acquisition started on : 02/20/2020 14:48:52
Technique started on : 02/20/2020 14:48:53
Saved on :
	File : DE_65_11_60.mpr
	Directory : P:\Chemistry\Data\VMP3\Kyler\DOE\DE_65\60C\
	Host : 10.0.4.64
Device : VMP3 (SN 1432)
Address : USB
EC-Lab for windows v11.33 (software)
Internet server v11.32 (firmware)
Command interpretor v11.33 (firmware)
Electrode material :
Initial state :
Electrolyte :
Comments :
Electrode surface area : 0.001 cm²
Characteristic mass : 0.001 g
Equivalent Weight : 0.000 g/eq.
Density : 0.000 g/cm3
Record Analogic IN 1
Cycle Definition : Charge/Discharge alternance
Mode                Single sine
E (V)               0.0000
vs.                 Eoc
tE (h:m:s)          0:00:0.0000
record              0
dI                  1.000
unit dI             mA
dt (s)              0.000
fi                  1.000
unit fi             MHz
ff                  1.000
unit ff             Hz
Nd                  20
Points              per decade
spacing             Logarithmic
Va (mV)             128.0
pw                  0.50
Na                  3
corr                0
E range min (V)     -10.000
E range max (V)     10.000
I Range             Auto
Bandwidth           5
nc cycles           0
goto Ns'            0
nr cycles           0
inc. cycle          1

freq/Hz	Re(Z)/Ohm	-Im(Z)/Ohm	|Z|/Ohm	Phase(Z)/deg	time/s	<Ewe>/V	<I>/mA	Cs/µF	Cp/µF	cycle number	I Range	|Ewe|/V	|I|/A	(Q-Qo)/mA.h	Analog IN 1/V	Re(Y)/Ohm-1	Im(Y)/Ohm-1	|Y|/Ohm-1	Phase(Y)/deg	dq/mA.h
1.00002e+06	101.054	49.8048	112.661	-26.2365	1.94948	-0.00270529	-0.00506085	0.00319552	0.000624509	1	11	0.00373791	3.31785e-05	-1.47607e-06	-0.000237822	0.00796175	0.00392398	0.00887621	26.2365	-1.47607e-06
707950	113.419	44.132	121.703	-21.2613	3.73549	-0.00162182	-0.00281991	0.00509407	0.000669841	1	11	0.0103883	8.53578e-05	-3.1605e-06	-0.000157655	0.0076575	0.00297957	0.00821676	21.2613	-4.63427e-07
501206	125.647	40.8613	132.124	-18.0149	5.52448	-0.000985438	-0.00159665	0.00777125	0.000743278	1	11	0.0229647	0.000173811	-4.04949e-06	-0.000398155	0.00719759	0.00234071	0.00756863	18.0149	-1.20069e-07
354810	135.595	37.6285	140.719	-15.5097	7.31148	-0.000801386	-0.0013262	0.0119208	0.000852382	1	11	0.0420979	0.000299162	-4.86356e-06	-0.000237822	0.00684757	0.00190025	0.00710635	15.5097	-4.98993e-07
251188	143.57	34.1893	147.585	-13.3947	9.09847	-0.00080543	-0.0013193	0.0185324	0.00099455	1	11	0.0694571	0.000470624	-5.30303e-06	-0.000237822	0.00659143	0.00156966	0.00677575	13.3947	3.55804e-07
177832	150.026	31.0982	153.216	-11.7107	10.8865	-0.000779168	-0.00125144	0.028779	0.0011856	1	11	0.106327	0.000693966	-5.65032e-06	-0.000157655	0.00639089	0.00132473	0.00652675	11.7107	8.90502e-08
125909	155.542	28.6783	158.163	-10.4467	12.4015	-0.000679565	-0.00100969	0.0440768	0.00144912	1	11	0.129976	0.000821783	-7.63212e-06	-0.000558489	0.00621777	0.00114641	0.00632258	10.4467	-7.49132e-07
89129.3	160.455	27.0438	162.718	-9.56699	14.1885	-0.000584361	-0.000826103	0.0660286	0.00182389	1	11	0.129616	0.000796571	-5.78046e-06	-7.74882e-05	0.00606014	0.0010214	0.00614561	9.56699	1.80078e-06
63093.8	164.96	26.2289	167.032	-9.03451	15.9755	-0.00051691	-0.000716136	0.096173	0.00237145	1	11	0.129307	0.000774147	-5.25527e-06	-7.74882e-05	0.00591261	0.000940116	0.00598688	9.03451	-2.49454e-07
44666.7	169.333	26.2595	171.357	-8.81499	17.4905	-0.000502446	-0.000719117	0.135691	0.00318654	1	11	0.139886	0.000816341	-3.9484e-06	-0.000478322	0.00576684	0.000894299	0.00583577	8.81499	-6.24439e-07
31621.1	173.832	27.2054	175.948	-8.8949	19.1405	-0.000473464	-0.000683893	0.185006	0.00442315	1	11	0.129636	0.000736788	-2.80997e-06	8.28454e-05	0.00561516	0.000878798	0.00568351	8.8949	1.56033e-06
22389	178.678	29.0074	181.017	-9.2212	20.6565	-0.000464667	-0.000633755	0.245062	0.00629293	1	11	0.129652	0.000716242	-2.29987e-06	-0.000718822	0.00545294	0.000885254	0.00552433	9.2212	4.32917e-07
15847.7	184.139	31.5797	186.827	-9.73154	22.0355	-0.000461442	-0.000602069	0.318014	0.00908623	1	11	0.1379	0.000738115	-7.78213e-07	-0.000237822	0.00527553	0.000904752	0.00535255	9.73154	5.1437e-07
11217.7	190.45	34.8462	193.612	-10.3686	23.5515	-0.000445693	-0.000586786	0.407155	0.0131889	1	11	0.130424	0.000673636	-1.04865e-06	-0.000558489	0.00508063	0.00092959	0.00516497	10.3686	-1.69219e-07
7944	197.719	38.5557	201.443	-11.0343	25.02	-0.000430205	-0.000493035	0.519628	0.0190355	1	11	0.132314	0.000656832	-4.98153e-07	0.000243179	0.0048724	0.000950128	0.00496417	11.0343	1.80797e-07
5621.06	205.949	42.5821	210.305	-11.6819	26.9313	-0.000406125	-0.000611206	0.664929	0.0272601	1	11	0.133104	0.00063291	-1.07323e-06	8.28454e-05	0.0046565	0.000962777	0.00475499	11.6819	-5.49432e-07
3981.27	214.994	46.8293	220.035	-12.2881	29.2117	-0.000415537	-0.00068595	0.853651	0.0386663	1	11	0.133356	0.000606067	-1.55737e-06	8.28454e-05	0.00444061	0.00096724	0.00454473	12.2881	3.91446e-07
2817.3	224.856	51.4741	230.672	-12.894	31.4919	-0.000404857	-0.000620901	1.09749	0.0546494	1	11	0.133394	0.000578283	-1.10425e-06	-7.74882e-05	0.00422584	0.000967382	0.00433515	12.894	3.29964e-07
1995.64	235.575	56.7463	242.313	-13.5436	33.7717	-0.000391997	-0.00063283	1.4054	0.0770764	1	11	0.133352	0.000550328	-1.66713e-06	-0.000237822	0.00401213	0.000966459	0.00412689	13.5436	3.28978e-07
1411.84	247.658	62.9748	255.539	-14.2669	36.0532	-0.000405286	-0.000632831	1.79006	0.108714	1	11	0.133285	0.000521584	-3.00598e-06	-0.000237822	0.0037926	0.000964386	0.00391329	14.2669	-4.01258e-07
1000.32	261.355	70.0957	270.591	-15.0135	38.3307	-0.000401558	-0.000672532	2.26981	0.152316	1	11	0.133222	0.000492335	-4.01803e-06	-0.000558489	0.00356946	0.000957335	0.00369561	15.0135	-4.99476e-07
707.509	277.624	77.6863	288.288	-15.633	40.6115	-0.000409051	-0.000588657	2.89563	0.21027	1	11	0.133169	0.000461931	-4.85279e-06	-7.74882e-05	0.00334043	0.000934739	0.00346875	15.633	-5.7701e-07
501.444	296.541	84.9218	308.461	-15.9804	43.1332	-0.000409964	-0.000566204	3.73748	0.28328	1	12	0.134015	0.000434463	-5.72567e-06	8.28454e-05	0.00311662	0.000892522	0.0032419	15.9804	1.86898e-07
354.66	318.248	90.8136	330.952	-15.9263	45.4129	-0.000405826	-0.000587347	4.94149	0.372074	1	12	0.133697	0.000403976	-6.55293e-06	0.000323346	0.00290561	0.000829128	0.00302159	15.9263	-9.72404e-08
251.044	341.906	94.4734	354.718	-15.4462	47.6819	-0.000410095	-0.000560686	6.71058	0.476007	1	12	0.133465	0.000376256	-6.39011e-06	0.000243179	0.00271732	0.000750833	0.00281914	15.4462	2.41814e-07
177.781	366.712	95.2749	378.887	-14.5639	49.9742	-0.000407317	-0.00051128	9.39627	0.594146	1	12	0.1333	0.000351821	-7.0737e-06	0.000403512	0.0025545	0.000663681	0.00263931	14.5639	-4.64601e-07
125.846	391.589	92.8009	402.435	-13.3323	52.2494	-0.000413263	-0.000573235	13.6279	0.724675	1	12	0.133195	0.000330972	-7.2016e-06	-0.000398155	0.00241791	0.000573009	0.00248488	13.3323	1.57337e-07
89.116	415.284	87.0583	424.311	-11.8398	54.5217	-0.000411884	-0.000575342	20.5142	0.863588	1	12	0.133129	0.000313753	-7.68832e-06	2.67859e-06	0.00230662	0.000483551	0.00235676	11.8398	-4.11029e-07
63.0823	436.443	78.498	443.446	-10.1961	56.8178	-0.000410076	-0.000567474	32.1406	1.00714	1	12	0.133088	0.000300122	-7.9382e-06	-0.000157655	0.00221945	0.000399187	0.00225507	10.1961	-2.37668e-07
44.6712	454.06	68.1563	459.147	-8.5366	59.0822	-0.000405621	-0.0005487	52.2741	1.15185	1	12	0.133061	0.000289801	-8.41796e-06	0.000163012	0.00215382	0.000323298	0.00217795	8.5366	-2.4258e-07
31.6296	468.008	57.1964	471.49	-6.96771	61.3195	-0.000409312	-0.000558041	87.9749	1.29465	1	12	0.133044	0.000282177	-9.09657e-06	-0.000157655	0.00210527	0.000257291	0.00212094	6.96771	-2.07921e-07
22.3854	478.461	46.625	480.727	-5.56578	63.5674	-0.000414009	-0.000585466	152.488	1.43442	1	12	0.133039	0.000276745	-9.28186e-06	-0.000478322	0.00207038	0.000201754	0.00208018	5.56578	-8.7078e-07
15.8576	486.018	37.2128	487.44	-4.37841	65.8959	-0.000420047	-0.000597361	269.706	1.57193	1	12	0.133032	0.000272919	-9.32012e-06	0.000163012	0.00204555	0.000156621	0.00205153	4.37841	1.51294e-08
11.2249	491.355	29.1106	492.216	-3.39056	68.2729	-0.000417177	-0.000581495	487.066	1.70364	1	12	0.133032	0.000270271	-1.09136e-05	8.28454e-05	0.00202807	0.000120154	0.00203163	3.39056	-1.29285e-06
7.93953	494.931	22.4742	495.441	-2.59994	70.8157	-0.000410393	-0.000576471	891.952	1.83537	1	12	0.133028	0.000268505	-8.72465e-06	0.000243179	0.00201633	9.15587e-05	0.0020184	2.59994	2.52463e-06
5.6205	497.377	17.1402	497.672	-1.97371	72.6806	-0.000420029	-0.000626502	1652.07	1.95964	1	12	0.133032	0.000267309	-1.09724e-05	-0.000638656	0.00200816	6.9204e-05	0.00200936	1.97371	-1.76126e-06
3.97785	498.934	12.9629	499.102	-1.48828	75.2162	-0.000420877	-0.000600606	3086.52	2.08207	1	12	0.133026	0.000266531	-8.75271e-06	-0.000478322	0.00200292	5.20383e-05	0.0020036	1.48828	4.33206e-06
2.81836	499.927	9.80012	500.023	-1.12303	78.7146	-0.000403711	-0.000558582	5762.25	2.21348	1	12	0.133027	0.000266042	-8.73414e-06	-0.000237822	0.00199952	3.91969e-05	0.00199991	1.12303	7.14349e-06
1.99706	500.36	7.37596	500.414	-0.844553	83.5777	-0.000404601	-0.000543798	10804.6	2.3474	1	12	0.133029	0.000265837	-6.83589e-06	-0.000157655	0.00199813	2.9455e-05	0.00199834	0.844553	9.40127e-06
1.41224	500.417	5.55404	500.448	-0.63589	90.3841	-0.000398809	-0.000532651	20291	2.49922	1	12	0.133029	0.000265821	-1.5651e-05	-0.000398155	0.00199809	2.21764e-05	0.00199821	0.63589	-6.87354e-06
1.00006	500.257	4.1524	500.275	-0.475575	99.9292	-0.000395669	-0.000519185	38325.9	2.64043	1	12	0.133029	0.000265912	-2.51431e-05	-7.74882e-05	0.00199883	1.65914e-05	0.0019989	0.475575	-1.63071e-05