File: data/DE_65_12_60.mpt
EC-Lab ASCII FILE
Nb header lines : 60

Potentio Electrochemical Impedance Spectroscopy

Run on channel : 4 (SN 4192)
User :
CE vs. WE compliance from -10 V to 10 V
Electrode connection : standard
Ewe ctrl range : min = -10.00 V, max = 10.00 V
Acquisition started on : 02/20/2020 14:49:02
Technique started on : 02/20/2020 14:49:03
Saved on :
	File : DE_65_12_60.mpr
	Directory : P:\Chemistry\Data\VMP3\Kyler\DOE\DE_65\60C\
	Host : 10.0.4.64
Device : VMP3 (SN 1432)
Address : USB
EC-Lab for windows v11.33 (software)
Internet server v11.32 (firmware)
Command interpretor v11.33 (firmware)
Electrode material :
Initial state :
Electrolyte :
Comments :
Electrode surface area : 0.001 cm²
Characteristic mass : 0.001 g
Equivalent Weight : 0.000 g/eq.
Density : 0.000 g/cm3
Record Analogic IN 1
Cycle Definition : Charge/Discharge alternance
Mode                Single sine
E (V)               0.0000
vs.                 Eoc
tE (h:m:s)          0:00:0.0000
record              0
dI                  1.000
unit dI             mA
dt (s)              0.000
fi                  1.000
unit fi             MHz
ff                  1.000
unit ff             Hz
Nd                  20
Points              per decade
spacing             Logarithmic
Va (mV)             128.0
pw                  0.50
Na                  3
corr                0
E range min (V)     -10.000
E range max (V)     10.000
I Range             Auto
Bandwidth           5
nc cycles           0
goto Ns'            0
nr cycles           0
inc. cycle          1

freq/Hz	Re(Z)/Ohm	-Im(Z)/Ohm	|Z|/Ohm	Phase(Z)/deg	time/s	<Ewe>/V	<I>/mA	Cs/µF	Cp/µF	cycle number	I Range	|Ewe|/V	|I|/A	(Q-Qo)/mA.h	Analog IN 1/V	Re(Y)/Ohm-1	Im(Y)/Ohm-1	|Y|/Ohm-1	Phase(Y)/deg	dq/mA.h
1.00002e+06	78.4722	24.3956	82.1768	-17.2695	1.95149	-0.00198052	-0.0086212	0.00652379	0.000574944	1	11	0.00259188	3.15403e-05	-2.87313e-06	-0.000644957	0.0116203	0.00361254	0.0121689	17.2695	-2.87313e-06
707950	82.9834	17.7576	84.8621	-12.0785	3.73749	-0.00132351	-0.00491358	0.01266	0.000554337	1	11	0.00713428	8.40692e-05	-5.85132e-06	-0.000243989	0.011523	0.00246579	0.0117838	12.0785	-8.4701e-07
501206	87.8023	15.2404	89.1152	-9.84711	5.52449	-0.0009863	-0.00302897	0.0208356	0.000609394	1	11	0.0161536	0.000181266	-7.42562e-06	-8.36012e-05	0.0110561	0.00191909	0.0112214	9.84711	-3.1581e-07
354810	90.7903	13.722	91.8214	-8.59462	7.30948	-0.000826942	-0.00213114	0.0326894	0.000730054	1	11	0.0305478	0.000332688	-7.91663e-06	-0.000564764	0.0107684	0.00162754	0.0108907	8.59462	-1.87576e-07
251188	93.1595	12.7224	94.0242	-7.77651	9.09549	-0.000835591	-0.00218288	0.0498028	0.000911823	1	11	0.0521067	0.000554184	-7.42398e-06	0.000237174	0.0105378	0.00143909	0.0106356	7.77651	5.04985e-07
177832	94.9708	12.2952	95.7634	-7.37665	10.8835	-0.000858353	-0.00245664	0.0727906	0.00119991	1	11	0.0821253	0.000857585	-8.36458e-06	-0.00112612	0.010356	0.00134071	0.0104424	7.37665	-2.25905e-07
125909	96.9219	12.4923	97.7236	-7.34437	12.5345	-0.000841071	-0.00237996	0.101186	0.0016535	1	11	0.120467	0.00123273	-9.1493e-06	-0.00048457	0.010149	0.0013081	0.0102329	7.34437	-1.41348e-06
89129.3	99.1605	13.1996	100.035	-7.58225	14.1855	-0.000787491	-0.00220258	0.135282	0.00235534	1	11	0.129793	0.00129747	-4.81401e-06	-0.000324182	0.00990908	0.00131903	0.00999648	7.58225	2.55081e-06
63093.8	101.912	14.2332	102.901	-7.9506	15.9715	-0.000767934	-0.00203583	0.177228	0.00339075	1	11	0.129579	0.00125926	-9.72261e-06	-3.40745e-06	0.00962466	0.0013442	0.00971808	7.9506	-1.40672e-06
44666.7	105.229	15.278	106.333	-8.26094	17.6215	-0.000735868	-0.00185045	0.233221	0.00481472	1	11	0.140737	0.00132356	-9.45602e-06	-0.000805345	0.00930687	0.00135125	0.00940445	8.26094	-1.05237e-06
31621.1	109.121	16.0311	110.292	-8.3576	19.2735	-0.000737938	-0.00196064	0.313964	0.00663308	1	11	0.130135	0.00117991	-1.31917e-05	-0.000644957	0.00897054	0.00131787	0.00906683	8.3576	-3.08784e-06
22389	113.128	16.214	114.284	-8.15634	20.7875	-0.000716051	-0.00188936	0.438425	0.00882482	1	11	0.134878	0.00118021	-1.5117e-05	-0.00048457	0.00866164	0.00124143	0.00875016	8.15634	-1.37337e-06
15847.7	116.998	15.9545	118.081	-7.76524	22.3015	-0.000705481	-0.00176354	0.629466	0.0114915	1	11	0.132305	0.00112046	-1.57786e-05	-0.000805345	0.0083911	0.00114425	0.00846876	7.76524	-3.40999e-07
11217.7	120.404	15.462	121.393	-7.31774	23.6805	-0.000712118	-0.00181249	0.917592	0.0148866	1	11	0.137883	0.00113584	-1.68339e-05	0.000397561	0.00817062	0.00104925	0.00823772	7.31774	-8.48563e-07
7944	123.376	15.1318	124.3	-6.99231	25.149	-0.00063091	-0.00122827	1.32401	0.0196214	1	11	0.140688	0.00113184	-1.79223e-05	-0.000243989	0.00798521	0.000979373	0.00804504	6.99231	1.77653e-07
5621.06	126.091	15.2082	127.005	-6.87735	27.2303	-0.000616108	-0.000977949	1.86177	0.0266953	1	11	0.130032	0.00102383	-1.96813e-05	-3.40745e-06	0.00781704	0.00094283	0.00787369	6.87735	-5.04433e-07
3981.27	128.715	15.8199	129.683	-7.00688	29.5107	-0.000623826	-0.00105295	2.52694	0.037604	1	11	0.130558	0.00100675	-1.88068e-05	-0.000725151	0.00765352	0.000940667	0.00771111	7.00688	5.90813e-07
2817.3	131.545	17.0174	132.642	-7.37113	31.791	-0.00061553	-0.0010939	3.31967	0.0546413	1	11	0.13077	0.00098589	-1.73627e-05	0.00015698	0.00747681	0.000967237	0.00753911	7.37113	4.77453e-07
1995.64	134.784	18.7577	136.083	-7.92291	34.0707	-0.000594836	-0.000889729	4.25166	0.0807817	1	11	0.130819	0.000961321	-1.84428e-05	-0.000805345	0.00727834	0.00101292	0.00734848	7.92291	6.04561e-07
1411.84	138.649	20.9669	140.225	-8.59927	36.3522	-0.000613703	-0.000977579	5.37653	0.120203	1	11	0.130807	0.000932837	-2.03171e-05	-0.000564764	0.00705121	0.0010663	0.00713138	8.59927	-5.41136e-07
1000.32	143.382	23.4456	145.286	-9.2867	38.6297	-0.000610012	-0.00111642	6.7861	0.176722	1	11	0.130775	0.000900116	-2.17781e-05	-0.000564764	0.00679274	0.00111074	0.00688295	9.2867	-7.05375e-07
707.509	149.152	25.9105	151.386	-9.85498	40.9105	-0.000612901	-0.00122865	8.68185	0.254326	1	11	0.130728	0.000863537	-2.31685e-05	-0.000163795	0.00650815	0.00113059	0.00660563	9.85498	-1.01032e-06
501.444	155.851	27.9896	158.345	-10.1813	43.1822	-0.000620172	-0.00135819	11.3397	0.354312	1	11	0.130682	0.000825298	-2.51428e-05	-0.000965732	0.00621589	0.00111632	0.00631533	10.1813	-3.32591e-07
354.66	163.418	29.27	166.019	-10.1546	45.4619	-0.000631432	-0.00137177	15.3315	0.476557	1	11	0.130642	0.000786909	-2.61845e-05	-0.000885539	0.00592905	0.00106196	0.0060234	10.1546	-7.13434e-07
251.044	171.451	29.432	173.959	-9.74071	47.7299	-0.000621962	-0.00119459	21.5402	0.616592	1	11	0.13062	0.000750869	-2.72044e-05	-0.000324182	0.00566562	0.000972586	0.0057485	9.74071	-4.65867e-07
177.781	179.384	28.2937	181.602	-8.96324	50.0222	-0.000613498	-0.000990982	31.6406	0.76804	1	11	0.130602	0.000719166	-2.75013e-05	-8.36012e-05	0.00543931	0.000857926	0.00550656	8.96324	-6.74654e-07
125.846	186.706	25.9659	188.503	-7.91755	52.2974	-0.000623229	-0.00103156	48.7055	0.924161	1	11	0.130589	0.000692768	-2.78202e-05	0.000237174	0.00525437	0.000730745	0.00530495	7.91755	3.90292e-07
89.116	192.858	22.712	194.191	-6.71652	54.5697	-0.000625951	-0.00104105	78.6337	1.07563	1	11	0.130582	0.00067244	-2.819e-05	0.00015698	0.00511423	0.000602279	0.00514957	6.71652	-7.79247e-07
63.0823	197.721	19.0983	198.642	-5.51719	56.8658	-0.000625933	-0.00104701	132.105	1.22114	1	11	0.130575	0.00065734	-2.85081e-05	-0.000404376	0.00501087	0.00048401	0.00503419	5.51719	-2.39081e-07
44.6712	201.242	15.531	201.84	-4.4131	59.1312	-0.000624217	-0.000936268	229.4	1.35824	1	11	0.130571	0.000646901	-2.99252e-05	-0.000564764	0.00493972	0.000381227	0.00495441	4.4131	-2.56289e-07
31.6296	203.727	12.3125	204.099	-3.45854	61.3685	-0.000620824	-0.000838186	408.677	1.48728	1	11	0.130572	0.00063975	-3.14301e-05	0.000317367	0.00489066	0.000295573	0.00489958	3.45854	-9.14689e-07
22.3854	205.41	9.56817	205.632	-2.66696	63.6164	-0.000623248	-0.000885459	743.065	1.6088	1	11	0.13057	0.000634966	-3.12884e-05	-0.000324182	0.00485778	0.00022628	0.00486304	2.66696	-2.00022e-07
15.8576	206.553	7.36968	206.685	-2.04341	65.9449	-0.000622241	-0.000893649	1361.87	1.73147	1	11	0.13057	0.000631738	-3.35848e-05	-0.00048457	0.00483521	0.000172517	0.00483829	2.04341	-2.87065e-06
11.2249	207.296	5.58425	207.371	-1.54309	68.3219	-0.000625429	-0.000889926	2539.07	1.84122	1	11	0.130574	0.000629661	-3.5412e-05	-0.000163795	0.00482052	0.000129857	0.00482226	1.54309	-4.33464e-06
7.93953	207.758	4.21331	207.8	-1.1618	70.8657	-0.00062775	-0.00104496	4757.75	1.95594	1	11	0.130576	0.000628372	-3.33433e-05	-0.000644957	0.00481132	9.75733e-05	0.00481231	1.1618	4.4312e-07
5.6205	208.101	3.15584	208.125	-0.86882	72.7307	-0.000625	-0.000974609	8972.83	2.06306	1	11	0.130565	0.000627337	-3.05652e-05	0.000477755	0.00480425	7.28561e-05	0.0048048	0.86882	1.46213e-07
3.97785	208.311	2.36441	208.324	-0.650301	75.2662	-0.000633641	-0.00106478	16921.9	2.17979	1	11	0.130582	0.000626821	-3.57992e-05	-0.000163795	0.0047999	5.44807e-05	0.00480021	0.650301	7.39305e-06
2.81836	208.401	1.78282	208.409	-0.49014	78.7646	-0.000629602	-0.00106809	31674.9	2.31792	1	11	0.13058	0.000626559	-3.87367e-05	-8.36012e-05	0.00479808	4.10464e-05	0.00479826	0.49014	5.72736e-06
1.99706	208.426	1.32418	208.431	-0.364007	83.6267	-0.000615758	-0.0010123	60184.3	2.42913	1	11	0.130581	0.000626496	-2.86365e-05	-0.000564764	0.00479766	3.04805e-05	0.00479776	0.364007	2.31287e-05
1.41224	208.316	0.983647	208.318	-0.270543	90.4332	-0.000613206	-0.00102633	114571	2.55444	1	11	0.130582	0.000626839	-2.64796e-05	-0.000324182	0.00480029	2.26665e-05	0.00480034	0.270543	1.97392e-05
1.00006	208.172	0.734351	208.173	-0.202117	99.9782	-0.000615744	-0.00103365	216715	2.69678	1	11	0.130583	0.000627278	-7.19121e-05	-0.000805345	0.00480366	1.69455e-05	0.00480369	0.202117	-5.53425e-05