File: data/DE_65_9_60.mpt
EC-Lab ASCII FILE
Nb header lines : 60

Potentio Electrochemical Impedance Spectroscopy

Run on channel : 1 (SN 20909)
User :
CE vs. WE compliance from -10 V to 10 V
Electrode connection : standard
Ewe ctrl range : min = -10.00 V, max = 10.00 V
Acquisition started on : 02/20/2020 14:48:36
Technique started on : 02/20/2020 14:48:37
Saved on :
	File : DE_65_9_60.mpr
	Directory : P:\Chemistry\Data\VMP3\Kyler\DOE\DE_65\60C\
	Host : 10.0.4.64
Device : VMP3 (SN 1432)
Address : USB
EC-Lab for windows v11.33 (software)
Internet server v11.32 (firmware)
Command interpretor v11.33 (firmware)
Electrode material :
Initial state :
Electrolyte :
Comments :
Electrode surface area : 0.001 cm²
Characteristic mass : 0.001 g
Equivalent Weight : 0.000 g/eq.
Density : 0.000 g/cm3
Record Analogic IN 1
Cycle Definition : Charge/Discharge alternance
Mode                Single sine
E (V)               0.0000
vs.                 Eoc
tE (h:m:s)          0:00:0.0000
record              0
dI                  1.000
unit dI             mA
dt (s)              0.000
fi                  1.000
unit fi             MHz
ff                  1.000
unit ff             Hz
Nd                  20
Points              per decade
spacing             Logarithmic
Va (mV)             128.0
pw                  0.50
Na                  3
corr                0
E range min (V)     -10.000
E range max (V)     10.000
I Range             Auto
Bandwidth           5
nc cycles           0
goto Ns'            0
nr cycles           0
inc. cycle          1

freq/Hz	Re(Z)/Ohm	-Im(Z)/Ohm	|Z|/Ohm	Phase(Z)/deg	time/s	<Ewe>/V	<I>/mA	Cs/µF	Cp/µF	cycle number	I Range	|Ewe|/V	|I|/A	(Q-Qo)/mA.h	Analog IN 1/V	Re(Y)/Ohm-1	Im(Y)/Ohm-1	|Y|/Ohm-1	Phase(Y)/deg	dq/mA.h
1.00002e+06	73.9988	102.628	126.524	-54.2068	1.64548	-0.319789	0.000659295	0.00155077	0.00102031	1	11	0.000735569	5.81369e-06	2.53412e-07	2.1919e-05	0.00462255	0.00641092	0.00790366	54.2068	2.53412e-07
707950	105.754	103.103	147.696	-44.2726	3.4325	-0.318387	0.000596775	0.00218045	0.00106255	1	11	0.00188412	1.27567e-05	5.44047e-07	-0.000218689	0.00484796	0.00472641	0.00677065	44.2726	1.66277e-07
501206	137.668	105.74	173.59	-37.5272	5.22148	-0.317384	0.000598457	0.00300306	0.00111428	1	11	0.0053148	3.0617e-05	4.17102e-07	2.1919e-05	0.00456861	0.00350907	0.00576071	37.5272	-9.11645e-08
354810	167.942	104.331	197.71	-31.8498	7.00849	-0.316829	0.000716971	0.00429945	0.00119723	1	11	0.0269299	0.000136209	6.31357e-07	-5.82835e-05	0.00429636	0.00266903	0.00505791	31.8498	3.66246e-07
251188	195.487	98.063	218.704	-26.6399	8.79548	-0.316695	0.000604809	0.00646125	0.00129901	1	11	0.0626087	0.000286271	2.16554e-06	-0.000459296	0.00408699	0.00205017	0.00457238	26.6399	7.15237e-07
177832	218.743	88.7415	236.059	-22.0818	10.5845	-0.316569	0.000765128	0.0100852	0.00142527	1	11	0.110469	0.000467974	4.33383e-06	-0.000459296	0.0039255	0.00159253	0.00423624	22.0818	1.08354e-06
125909	237.764	78.8502	250.497	-18.3472	12.2355	-0.316444	0.000711751	0.016031	0.00158839	1	11	0.129992	0.000518934	4.62527e-06	-0.000138486	0.00378913	0.0012566	0.00399206	18.3472	3.31217e-07
89129.3	253.229	69.2156	262.518	-15.2874	14.0245	-0.316363	0.000650909	0.0257986	0.00179344	1	11	0.129659	0.000493907	5.45534e-06	0.000262526	0.00367448	0.00100435	0.00380927	15.2874	1.0529e-06
63093.8	265.529	60.5513	272.346	-12.8461	15.6755	-0.31632	0.000669572	0.0416591	0.00205928	1	11	0.140664	0.00051649	7.17861e-06	0.000102121	0.0035799	0.000816361	0.0036718	12.8461	4.6413e-07
44666.7	275.313	53.5765	280.478	-11.0122	17.3255	-0.316286	0.000655575	0.0665062	0.00242669	1	11	0.130015	0.00046355	7.02698e-06	0.000102121	0.00349969	0.000681048	0.00356535	11.0122	2.27898e-07
31621.1	283.135	48.5213	287.262	-9.72442	18.8415	-0.316307	0.000541729	0.103731	0.0029595	1	11	0.134844	0.00046941	8.23246e-06	2.1919e-05	0.00343112	0.000587997	0.00348114	9.72442	2.82302e-07
22389	289.703	45.7511	293.294	-8.97426	20.3585	-0.316273	0.000607797	0.155376	0.00378077	1	11	0.132581	0.000452042	7.18954e-06	-0.000298891	0.00336781	0.000531858	0.00340955	8.97426	-2.88947e-07
15847.7	295.177	45.4295	298.653	-8.74951	21.7385	-0.316281	0.000581295	0.221063	0.00511517	1	11	0.138952	0.000465263	6.62457e-06	0.000102121	0.00330941	0.000509337	0.00334837	8.74951	-2.70846e-07
11217.7	300.176	47.9139	303.976	-9.06901	23.2525	-0.316268	0.000598278	0.296111	0.00735698	1	11	0.130185	0.000428275	7.74939e-06	-0.000539499	0.00324861	0.000518541	0.00328974	9.06901	4.79158e-07
7944	305.066	53.7166	309.759	-9.98638	24.721	-0.316252	0.000601451	0.372969	0.0112161	1	11	0.131763	0.000425373	8.30553e-06	-0.000539499	0.0031794	0.000559835	0.00322831	9.98638	2.10337e-07
5621.06	310.13	63.4825	316.561	-11.5684	26.6323	-0.316223	0.000505895	0.446014	0.0179367	1	11	0.132522	0.000418629	8.00765e-06	0.000342729	0.00309478	0.000633489	0.00315895	11.5684	-2.5256e-07
3981.27	315.807	78.0907	325.318	-13.8891	28.9127	-0.316244	0.000419111	0.511916	0.0294972	1	11	0.132874	0.000408443	8.15758e-06	-0.000379094	0.00298404	0.000737874	0.00307391	13.8891	4.1127e-07
2817.3	322.636	99.0277	337.492	-17.063	31.1929	-0.316224	0.000518585	0.570468	0.0491155	1	11	0.133013	0.000394121	8.90301e-06	0.000583336	0.00283261	0.000869422	0.00296304	17.063	4.27134e-07
1995.64	331.421	127.839	355.222	-21.0931	33.7237	-0.316219	0.00087965	0.623842	0.0807981	1	12	0.136381	0.000383931	9.15253e-06	0.000342729	0.00262652	0.00101312	0.00281514	21.0931	1.94523e-07
1411.84	342.899	167.38	381.57	-26.0185	36.0052	-0.316229	0.000865951	0.673491	0.129596	1	12	0.136076	0.000356622	9.14496e-06	0.000102121	0.00235514	0.00114962	0.00262075	26.0185	7.98451e-08
1000.32	358.458	220.363	420.776	-31.5812	38.2827	-0.316226	0.000878473	0.72201	0.198024	1	12	0.13545	0.000321905	9.42153e-06	0.000342729	0.00202459	0.00124462	0.00237656	31.5812	3.17836e-08
707.509	379.622	291.162	478.423	-37.4875	40.5634	-0.316226	0.0008454	0.772596	0.286154	1	12	0.134741	0.000281636	9.73128e-06	-0.000860309	0.00165855	0.00127207	0.0020902	37.4875	-8.96755e-08
501.444	407.936	383.928	560.189	-43.2634	42.8352	-0.316226	0.000867047	0.826701	0.388309	1	12	0.134109	0.0002394	9.90788e-06	2.1919e-05	0.00129994	0.00122343	0.00178511	43.2634	1.09196e-07
354.66	445.424	506.571	674.55	-48.6751	45.1129	-0.316225	0.000802134	0.885866	0.499599	1	12	0.133605	0.000198065	1.04333e-05	-0.000379094	0.000978917	0.0011133	0.00148247	48.6751	2.70124e-07
251.044	493.376	667.81	830.295	-53.5431	47.3819	-0.316228	0.000841813	0.949329	0.614126	1	12	0.133255	0.000160491	1.07082e-05	-0.000379094	0.00071567	0.000968697	0.00120439	53.5431	2.57237e-09
177.781	552.977	880.995	1040.16	-57.8846	49.6742	-0.316224	0.000897448	1.01616	0.728964	1	12	0.133025	0.000127888	1.11014e-05	-0.000138486	0.0005111	0.000814277	0.000961389	57.8846	2.43853e-07
125.846	627.508	1166.65	1324.7	-61.7255	51.9494	-0.316225	0.000850732	1.08403	0.840785	1	12	0.132884	0.000100312	1.16179e-05	-0.000138486	0.000357587	0.000664818	0.000754885	61.7255	1.00481e-07
89.116	721.245	1550.37	1709.93	-65.0518	54.2217	-0.316222	0.000847633	1.15194	0.94699	1	12	0.132803	7.76658e-05	1.20703e-05	-0.000539499	0.000246676	0.00053025	0.00058482	65.0518	2.25493e-07
63.0823	840.438	2070.08	2234.18	-67.9032	56.5179	-0.316223	0.000823127	1.21878	1.04632	1	12	0.132752	5.94185e-05	1.25807e-05	-5.82835e-05	0.000168371	0.000414715	0.000447591	67.9032	1.73582e-07
44.6712	994.472	2772.12	2945.1	-70.2651	59.0352	-0.316226	0.000889732	1.28523	1.13868	1	13	0.133025	4.51681e-05	1.31322e-05	0.000422931	0.000114654	0.000319603	0.000339546	70.2651	1.21549e-07
31.6296	1196.85	3724.18	3911.77	-72.1839	61.2724	-0.316223	0.000895425	1.35113	1.22465	1	13	0.13287	3.39668e-05	1.36457e-05	0.000262526	7.82159e-05	0.000243379	0.000255639	72.1839	1.65125e-07
22.3854	1466.75	5015.37	5225.44	-73.6984	63.5205	-0.316221	0.00089722	1.4176	1.30591	1	13	0.132786	2.54114e-05	1.42384e-05	-0.000138486	5.37168e-05	0.000183678	0.000191371	73.6984	1.05807e-07
15.8576	1827.46	6761.66	7004.26	-74.8761	65.849	-0.316217	0.000904167	1.48433	1.38329	1	13	0.132742	1.89516e-05	1.48371e-05	0.000102121	3.72497e-05	0.000137825	0.00014277	74.8761	1.75039e-07
11.2249	2317.73	9128.59	9418.23	-75.7538	68.2259	-0.316224	0.000902444	1.55323	1.45917	1	13	0.132715	1.40913e-05	1.53664e-05	2.1919e-05	2.6129e-05	0.000102912	0.000106177	75.7538	9.87033e-08
7.93953	2991.81	12343.4	12700.8	-76.3753	70.7697	-0.316225	0.00088991	1.62402	1.5339	1	13	0.132701	1.04483e-05	1.61061e-05	-0.000298891	1.8547e-05	7.65196e-05	7.87353e-05	76.3753	3.20689e-07
5.6205	3937.63	16709	17166.7	-76.7397	72.6347	-0.316231	0.000864193	1.6947	1.60554	1	13	0.132699	7.72999e-06	1.65401e-05	0.000262526	1.33616e-05	5.66991e-05	5.82522e-05	76.7397	1.32477e-07
3.97785	5238.08	22551.9	23152.3	-76.9239	75.1702	-0.316229	0.000908114	1.77414	1.68333	1	13	0.132696	5.73145e-06	1.71842e-05	0.000503134	9.77204e-06	4.20724e-05	4.31923e-05	76.9239	3.30023e-07
2.81836	7054.42	30422	31229.2	-76.9447	78.6696	-0.316215	0.000887192	1.85625	1.76153	1	13	0.132692	4.24898e-06	1.80382e-05	-0.000218689	7.23336e-06	3.11937e-05	3.20213e-05	76.9447	4.21088e-07
1.99706	9609.75	40969.6	42081.5	-76.7994	83.9787	-0.31621	0.000885498	1.94521	1.84377	1	14	0.132702	3.15346e-06	1.93124e-05	-5.82835e-05	5.42662e-06	2.31355e-05	2.37634e-05	76.7994	5.54761e-07
1.41224	13125.6	55129.5	56670.5	-76.608	90.7852	-0.316212	0.000887303	2.04422	1.93456	1	14	0.132698	2.34156e-06	2.09924e-05	0.000182324	4.08699e-06	1.7166e-05	1.76459e-05	76.608	7.05152e-07
1.00006	18169.2	73849.5	76051.7	-76.178	100.331	-0.316212	0.000888849	2.15499	2.03199	1	14	0.132694	1.74479e-06	2.32236e-05	2.1919e-05	3.14136e-06	1.27682e-05	1.3149e-05	76.178	7.28111e-07