File: data/DE_65_7_60.mpt
EC-Lab ASCII FILE
Nb header lines : 60

Potentio Electrochemical Impedance Spectroscopy

Run on channel : 3 (SN 20921)
User :
CE vs. WE compliance from -10 V to 10 V
Electrode connection : standard
Ewe ctrl range : min = -10.00 V, max = 10.00 V
Acquisition started on : 02/20/2020 14:50:41
Technique started on : 02/20/2020 14:50:42
Saved on :
	File : DE_65_7_60.mpr
	Directory : P:\Chemistry\Data\VMP3\Kyler\DOE\DE_65\60C\
	Host : 10.0.4.64
Device : VMP3 (SN 1432)
Address : USB
EC-Lab for windows v11.33 (software)
Internet server v11.32 (firmware)
Command interpretor v11.33 (firmware)
Electrode material :
Initial state :
Electrolyte :
Comments :
Electrode surface area : 0.001 cm²
Characteristic mass : 0.001 g
Equivalent Weight : 0.000 g/eq.
Density : 0.000 g/cm3
Record Analogic IN 1
Cycle Definition : Charge/Discharge alternance
Mode                Single sine
E (V)               0.0000
vs.                 Eoc
tE (h:m:s)          0:00:0.0000
record              0
dI                  1.000
unit dI             mA
dt (s)              0.000
fi                  1.000
unit fi             MHz
ff                  1.000
unit ff             Hz
Nd                  20
Points              per decade
spacing             Logarithmic
Va (mV)             128.0
pw                  0.50
Na                  3
corr                0
E range min (V)     -10.000
E range max (V)     10.000
I Range             Auto
Bandwidth           5
nc cycles           0
goto Ns'            0
nr cycles           0
inc. cycle          1

freq/Hz	Re(Z)/Ohm	-Im(Z)/Ohm	|Z|/Ohm	Phase(Z)/deg	time/s	<Ewe>/V	<I>/mA	Cs/µF	Cp/µF	cycle number	I Range	|Ewe|/V	|I|/A	(Q-Qo)/mA.h	Analog IN 1/V	Re(Y)/Ohm-1	Im(Y)/Ohm-1	|Y|/Ohm-1	Phase(Y)/deg	dq/mA.h
1.00002e+06	116.485	80.5089	141.599	-34.6505	1.94949	-0.36876	0.000201241	0.00197683	0.000639049	1	11	0.00451799	3.19069e-05	4.07593e-08	2.67859e-06	0.00580961	0.00401534	0.00706218	34.6505	4.07593e-08
707950	139.082	78.4427	159.678	-29.4232	3.73748	-0.367703	0.000164151	0.00286593	0.000691642	1	11	0.0126974	7.95187e-05	1.23915e-07	-0.000317989	0.00545483	0.00307655	0.00626261	29.4232	2.66207e-08
501206	162.308	76.9851	179.64	-25.3757	5.52647	-0.367056	0.000210563	0.00412475	0.000757535	1	11	0.0277704	0.000154589	-1.04812e-07	-0.000478322	0.00502959	0.00238561	0.00556668	25.3757	-1.00307e-07
354810	183.232	72.1817	196.937	-21.5012	7.31247	-0.366879	0.0001608	0.00621438	0.000834825	1	11	0.0499948	0.000253862	1.89369e-07	-0.000157655	0.0047244	0.00186111	0.00507776	21.5012	-1.51611e-07
251188	200.517	65.014	210.794	-17.9643	9.09948	-0.36689	6.98486e-05	0.00974575	0.000927072	1	11	0.0809114	0.000383841	3.98018e-07	-0.000237822	0.0045127	0.00146316	0.00474397	17.9643	3.09275e-07
177832	214.05	57.3389	221.596	-14.9961	10.7495	-0.36685	8.96082e-05	0.0156085	0.00104504	1	11	0.121705	0.000549218	2.02735e-06	0.000163012	0.00435902	0.00116768	0.00451271	14.9961	1.96859e-07
125909	224.731	50.4454	230.323	-12.6515	12.4015	-0.366729	4.4316e-05	0.0250577	0.00120201	1	11	0.12987	0.000563859	2.11712e-06	-0.000398155	0.00423631	0.000950923	0.00434172	12.6515	-7.49518e-08
89129.3	233.284	44.9312	237.571	-10.9019	14.1885	-0.366645	0.000121481	0.0397421	0.00142155	1	11	0.129503	0.000545113	1.79756e-06	-0.000398155	0.0041333	0.000796088	0.00420927	10.9019	-5.20494e-07
63093.8	240.423	40.7998	243.86	-9.63135	15.8385	-0.366602	6.70554e-05	0.0618265	0.00173065	1	11	0.140211	0.000574966	1.24635e-06	-0.000478322	0.00404291	0.000686083	0.00410071	9.63135	1.96797e-08
44666.7	246.61	38.2299	249.556	-8.81194	17.4885	-0.366552	8.86757e-05	0.0932036	0.00218728	1	11	0.130059	0.000521162	2.82744e-06	-7.74882e-05	0.00395982	0.000613858	0.00400712	8.81194	8.01571e-07
31621.1	252.171	37.2314	254.905	-8.39866	19.0045	-0.366541	0.000101536	0.135187	0.002884	1	11	0.135032	0.000529733	2.56479e-06	-0.000478322	0.00388096	0.000572997	0.00392303	8.39866	-4.54583e-07
22389	257.351	37.916	260.129	-8.3812	20.5175	-0.366517	4.86028e-05	0.187483	0.00398318	1	11	0.132826	0.000510617	2.8052e-06	-0.000398155	0.00380319	0.000560331	0.00384424	8.3812	2.53123e-08
15847.7	262.328	40.452	265.429	-8.76618	21.8975	-0.366519	0.000123344	0.248264	0.00576632	1	11	0.139666	0.000526189	4.02486e-06	8.28454e-05	0.00372348	0.000574175	0.00376749	8.76618	4.88122e-07
11217.7	267.261	45.2763	271.069	-9.61513	23.4115	-0.366513	6.55638e-05	0.313361	0.00874236	1	11	0.13136	0.000484602	2.84953e-06	8.28454e-05	0.00363728	0.000616187	0.0036891	9.61513	-4.50871e-07
7944	272.351	52.9418	277.448	-11.0004	24.88	-0.366498	6.78002e-05	0.378427	0.0137789	1	11	0.133052	0.000479556	2.4991e-06	-0.000157655	0.00353805	0.000687755	0.00360427	11.0004	-2.17877e-07
5621.06	277.934	64.3069	285.277	-13.0275	26.7923	-0.366471	-6.71442e-05	0.440296	0.0223731	1	11	0.13386	0.000469229	2.50297e-06	8.28454e-05	0.00341515	0.000790178	0.00350537	13.0275	-3.94723e-07
3981.27	284.377	80.3546	295.512	-15.7784	29.0717	-0.366453	-8.9325e-05	0.497493	0.036784	1	11	0.134191	0.000454097	2.22284e-06	-0.000157655	0.00325645	0.000920156	0.00338396	15.7784	-4.18075e-07
2817.3	292.135	102.589	309.624	-19.3498	31.351	-0.366477	-0.000103491	0.550662	0.0604533	1	11	0.134292	0.000433725	2.84196e-06	8.28454e-05	0.00304728	0.00107012	0.00322972	19.3498	2.55422e-07
1995.64	301.852	132.687	329.728	-23.7292	33.6307	-0.366478	-8.76484e-05	0.601048	0.0973318	1	11	0.134274	0.000407227	2.70418e-06	-0.000478322	0.0027764	0.00122044	0.0030328	23.7292	2.92287e-07
1411.84	314.276	173.382	358.93	-28.885	36.1632	-0.366479	2.64886e-05	0.650177	0.151712	1	12	0.137985	0.000384434	2.32231e-06	-0.000157655	0.00243945	0.00134581	0.00278606	28.885	-1.42722e-07
1000.32	330.257	227.676	401.131	-34.582	38.4407	-0.366477	7.02445e-06	0.698817	0.225126	1	12	0.137092	0.000341764	2.07608e-06	-0.000317989	0.00205248	0.00141496	0.00249295	34.582	-1.46163e-07
707.509	350.975	300.485	462.033	-40.5683	40.7214	-0.366481	1.29517e-05	0.748626	0.316639	1	12	0.136167	0.000294712	1.86082e-06	-0.000478322	0.00164411	0.00140759	0.00216435	40.5683	-2.59182e-07
501.444	377.443	396.894	547.712	-46.4389	42.9932	-0.366482	5.93798e-06	0.799692	0.419921	1	12	0.135394	0.000247199	1.45362e-06	-7.74882e-05	0.00125819	0.00132303	0.00182578	46.4389	-7.59104e-08
354.66	411.252	526.478	668.062	-52.0052	45.272	-0.366477	-2.57568e-05	0.85237	0.529364	1	12	0.134805	0.000201786	1.54733e-06	-7.74882e-05	0.000921455	0.00117963	0.00149687	52.0052	-5.29357e-08
251.044	453.755	699.892	834.112	-57.0438	47.5409	-0.366475	-5.24881e-06	0.905813	0.637753	1	12	0.134414	0.000161147	1.80767e-06	-0.000398155	0.000652188	0.00100596	0.00119888	57.0438	1.82601e-07
177.781	507.326	933.017	1062.03	-61.465	49.8333	-0.366477	4.22546e-05	0.959499	0.740547	1	12	0.134157	0.000126322	1.86662e-06	2.67859e-06	0.000449797	0.000827216	0.000941596	61.465	-8.3914e-08
125.846	575.48	1249.56	1375.71	-65.2718	52.1074	-0.366472	-1.82082e-05	1.0121	0.834998	1	12	0.134008	9.74103e-05	1.91884e-06	-0.000157655	0.000304072	0.000660242	0.000726897	65.2718	6.4681e-08
89.116	663.258	1678.5	1804.8	-68.4386	54.3797	-0.366478	-2.88348e-06	1.064	0.920303	1	12	0.133917	7.42004e-05	1.8711e-06	2.67859e-06	0.000203623	0.000515307	0.000554079	68.4386	-6.83408e-08
63.0823	778.588	2262.65	2392.86	-71.0114	56.6758	-0.366481	6.43768e-06	1.11505	0.997001	1	12	0.133866	5.5944e-05	1.89862e-06	-0.000638656	0.00013598	0.000395169	0.00041791	71.0114	-2.20672e-08
44.6712	931.87	3058.23	3197.06	-73.0536	59.1912	-0.366482	-3.55872e-06	1.16499	1.06601	1	13	0.134126	4.19529e-05	1.9104e-06	-7.74882e-05	9.11705e-05	0.000299206	0.000312788	73.0536	1.20622e-08
31.6296	1140.1	4138.97	4293.12	-74.5995	61.4285	-0.366484	-1.03092e-05	1.21572	1.12999	1	13	0.133975	3.12068e-05	1.95416e-06	-0.000478322	6.18582e-05	0.000224567	0.000232931	74.5995	2.72121e-08
22.3854	1425.32	5609.4	5787.65	-75.7432	63.6754	-0.366483	-8.73465e-06	1.26747	1.1906	1	13	0.133894	2.31344e-05	1.92303e-06	-0.000237822	4.25508e-05	0.00016746	0.000172782	75.7432	3.32777e-08
15.8576	1818.52	7597.16	7811.77	-76.5385	66.003	-0.366484	-4.79681e-06	1.32109	1.2495	1	13	0.13385	1.71344e-05	1.92298e-06	8.28454e-05	2.98002e-05	0.000124495	0.000128012	76.5385	3.02071e-08
11.2249	2367.41	10292.1	10560.9	-77.046	68.3799	-0.366479	-5.39707e-06	1.37764	1.30841	1	13	0.13383	1.26723e-05	1.97028e-06	-0.000157655	2.12263e-05	9.22793e-05	9.46891e-05	77.046	7.63467e-08
7.93953	3134.65	13939.9	14288	-77.3268	70.9237	-0.366474	-4.71595e-06	1.43802	1.3688	1	13	0.133818	9.36571e-06	1.87949e-06	2.67859e-06	1.53548e-05	6.82836e-05	6.99887e-05	77.3268	-6.47563e-08
5.6205	4240.65	18933.3	19402.3	-77.3753	72.7887	-0.366482	1.564e-05	1.49561	1.42417	1	13	0.13381	6.89658e-06	1.87507e-06	-0.000237822	1.12648e-05	5.02941e-05	5.15402e-05	77.3753	2.01392e-08
3.97785	5725.91	25493.5	26128.6	-77.3413	75.3242	-0.366477	-1.62373e-05	1.56943	1.49406	1	13	0.133802	5.12091e-06	1.87772e-06	0.000163012	8.38711e-06	3.73419e-05	3.82722e-05	77.3413	-8.64552e-08
2.81836	7760.5	34471.9	35334.6	-77.3128	79.1546	-0.366476	-8.79824e-06	1.63817	1.55915	1	14	0.13382	3.78722e-06	1.98171e-06	-0.000398155	6.21568e-06	2.76098e-05	2.83009e-05	77.3128	2.25986e-08
1.99706	10765.5	46334.3	47568.5	-76.9198	84.0167	-0.366472	-6.82122e-06	1.71999	1.6319	1	14	0.133814	2.81308e-06	1.92748e-06	0.000163012	4.75767e-06	2.04769e-05	2.10223e-05	76.9198	-6.27966e-08
1.41224	14804.9	62206.9	63944.4	-76.613	90.8232	-0.366469	-1.78635e-06	1.81165	1.71453	1	14	0.133809	2.09258e-06	1.8743e-06	-0.000237822	3.62076e-06	1.52137e-05	1.56386e-05	76.613	-1.15711e-07
1.00006	20689	83393.7	85921.8	-76.0669	100.369	-0.36646	5.46882e-08	1.90835	1.79771	1	14	0.133807	1.55731e-06	1.98195e-06	-0.000317989	2.80243e-06	1.12961e-05	1.16385e-05	76.0669	1.03316e-07