File: data/DE_65_6_60.mpt
EC-Lab ASCII FILE
Nb header lines : 60

Potentio Electrochemical Impedance Spectroscopy

Run on channel : 2 (SN 20919)
User :
CE vs. WE compliance from -10 V to 10 V
Electrode connection : standard
Ewe ctrl range : min = -10.00 V, max = 10.00 V
Acquisition started on : 02/20/2020 14:50:33
Technique started on : 02/20/2020 14:50:34
Saved on :
	File : DE_65_6_60.mpr
	Directory : P:\Chemistry\Data\VMP3\Kyler\DOE\DE_65\60C\
	Host : 10.0.4.64
Device : VMP3 (SN 1432)
Address : USB
EC-Lab for windows v11.33 (software)
Internet server v11.32 (firmware)
Command interpretor v11.33 (firmware)
Electrode material :
Initial state :
Electrolyte :
Comments :
Electrode surface area : 0.001 cm²
Characteristic mass : 0.001 g
Equivalent Weight : 0.000 g/eq.
Density : 0.000 g/cm3
Record Analogic IN 1
Cycle Definition : Charge/Discharge alternance
Mode                Single sine
E (V)               0.0000
vs.                 Eoc
tE (h:m:s)          0:00:0.0000
record              0
dI                  1.000
unit dI             mA
dt (s)              0.000
fi                  1.000
unit fi             MHz
ff                  1.000
unit ff             Hz
Nd                  20
Points              per decade
spacing             Logarithmic
Va (mV)             128.0
pw                  0.50
Na                  3
corr                0
E range min (V)     -10.000
E range max (V)     10.000
I Range             Auto
Bandwidth           5
nc cycles           0
goto Ns'            0
nr cycles           0
inc. cycle          1

freq/Hz	Re(Z)/Ohm	-Im(Z)/Ohm	|Z|/Ohm	Phase(Z)/deg	time/s	<Ewe>/V	<I>/mA	Cs/µF	Cp/µF	cycle number	I Range	|Ewe|/V	|I|/A	(Q-Qo)/mA.h	Analog IN 1/V	Re(Y)/Ohm-1	Im(Y)/Ohm-1	|Y|/Ohm-1	Phase(Y)/deg	dq/mA.h
1.00002e+06	98.7273	42.6767	107.556	-23.3773	1.84749	0.0813411	-0.00086485	0.00372925	0.000587125	1	11	0.0018582	1.72765e-05	-1.22333e-07	-0.000537302	0.00853424	0.00368908	0.00929745	23.3773	-1.22333e-07
707950	109.603	36.002	115.365	-18.1841	3.63348	0.0824294	-0.000862433	0.00624441	0.000608132	1	11	0.0071988	6.24004e-05	-6.9632e-07	-0.000136398	0.00823526	0.00270508	0.00866816	18.1841	-2.18577e-07
501206	120.585	32.0191	124.763	-14.8707	5.42149	0.0830431	-0.000810765	0.00991733	0.000653191	1	11	0.0187846	0.000150562	-1.09998e-06	0.000104145	0.00774674	0.00205701	0.00801519	14.8707	-5.73502e-08
354810	128.702	27.8987	131.691	-12.2308	7.20947	0.0832489	-0.000823028	0.0160783	0.000721597	1	11	0.0373887	0.000283912	-1.76418e-06	-0.000777844	0.00742116	0.00160868	0.00759352	12.2308	-5.90724e-07
251188	134.581	23.7151	136.655	-9.99372	8.99648	0.0832264	-0.000834731	0.0267176	0.000804633	1	11	0.0642319	0.000470032	-2.89447e-06	0.000104145	0.00720669	0.00126992	0.00731772	9.99372	-1.33887e-07
177832	138.771	19.8503	140.183	-8.14057	10.7855	0.0832405	-0.000906645	0.0450863	0.000904033	1	11	0.10025	0.000715135	-4.50251e-06	-0.000136398	0.00706164	0.00101012	0.00713352	8.14057	1.34562e-07
125909	141.859	16.6888	142.837	-6.70965	12.4375	0.0832773	-0.000870029	0.0757421	0.00103396	1	11	0.129172	0.000904333	-3.63228e-06	-0.000537302	0.00695303	0.000817981	0.00700098	6.70965	2.06743e-07
89129.3	144.236	14.2964	144.943	-5.66053	14.2245	0.0833406	-0.000831558	0.124903	0.00121515	1	11	0.129529	0.000893656	-3.65812e-06	-0.000216578	0.00686561	0.000680502	0.00689925	5.66053	1.90516e-07
63093.8	146.143	12.6057	146.686	-4.92989	16.0105	0.0833857	-0.000780079	0.200109	0.00147783	1	11	0.129322	0.000881624	-4.76009e-06	-5.62167e-05	0.00679207	0.000585855	0.00681729	4.92989	1.79081e-07
44666.7	147.833	11.5641	148.284	-4.47281	17.5245	0.0833736	-0.000876905	0.308123	0.00187395	1	11	0.14017	0.000945282	-5.16813e-06	2.39641e-05	0.00672327	0.000525923	0.00674381	4.47281	-2.56497e-08
31621.1	149.412	11.1252	149.826	-4.25838	19.1755	0.0834162	-0.000802195	0.452412	0.00249447	1	11	0.12978	0.000866205	-4.99133e-06	-0.000136398	0.006656	0.000495605	0.00667442	4.25838	6.44362e-07
22389	151.03	11.2101	151.445	-4.24496	20.6915	0.0834113	-0.000853861	0.634125	0.00347442	1	11	0.133784	0.000883382	-6.1957e-06	0.000184326	0.00658492	0.000488762	0.00660304	4.24496	3.81153e-07
15847.7	152.759	11.7537	153.211	-4.39982	22.2065	0.0834269	-0.00071968	0.854436	0.00502864	1	11	0.131869	0.000860703	-6.89692e-06	0.000104145	0.00650773	0.000500722	0.00652696	4.39982	-7.50342e-07
11217.7	154.656	12.7296	155.179	-4.70535	23.5845	0.083411	-0.000795505	1.11456	0.00750004	1	11	0.137153	0.000883835	-7.54244e-06	-5.62167e-05	0.00642245	0.000528625	0.00644417	4.70535	-8.33476e-07
7944	156.734	14.1524	157.372	-5.15955	25.053	0.0834461	-0.000741981	1.41564	0.0114487	1	11	0.139921	0.000889113	-8.00355e-06	0.000184326	0.00632864	0.000571447	0.00635438	5.15955	-7.53818e-07
5621.06	159.003	16.0868	159.815	-5.77711	27.1493	0.0834646	-0.000798108	1.76008	0.0178335	1	11	0.129606	0.000810975	-9.8301e-06	-0.000296759	0.00622545	0.000629845	0.00625723	5.77711	-6.69393e-07
3981.27	161.5	18.6136	162.569	-6.57461	29.4297	0.0834794	-0.000762983	2.14766	0.0281549	1	11	0.130192	0.000800839	-1.05929e-05	0.000104145	0.00611078	0.000704297	0.00615123	6.57461	4.88947e-07
2817.3	164.256	21.9388	165.714	-7.60768	31.709	0.0834685	-0.000847172	2.57498	0.0451315	1	11	0.130435	0.000787108	-1.03702e-05	-0.000136398	0.00598136	0.0007989	0.00603448	7.60768	3.19719e-08
1995.64	167.32	26.309	169.376	-8.9359	33.9887	0.0834649	-0.00084773	3.03133	0.0731376	1	11	0.130522	0.000770608	-1.02885e-05	2.39641e-05	0.00583238	0.00091707	0.00590403	8.9359	-1.13995e-08
1411.84	170.795	32.0601	173.778	-10.6314	36.2702	0.083463	-0.000861112	3.51617	0.119678	1	11	0.130535	0.000751159	-1.21621e-05	0.000344687	0.0056557	0.00106164	0.00575448	10.6314	-8.13428e-07
1000.32	174.651	39.5971	179.084	-12.7742	38.5467	0.0834692	-0.000845874	4.01807	0.196441	1	11	0.13052	0.000728822	-1.33257e-05	-5.62167e-05	0.00544577	0.00123467	0.00558398	12.7742	-7.76385e-07
707.509	178.889	49.6349	185.647	-15.5073	40.8275	0.0834699	-0.000844387	4.53211	0.323964	1	11	0.130489	0.000702888	-1.45829e-05	-0.000216578	0.00519046	0.00144015	0.00538655	15.5073	-8.47485e-07
501.444	183.425	63.0672	193.964	-18.9746	43.0992	0.0834721	-0.00080945	5.03262	0.532056	1	11	0.13046	0.000672598	-1.61495e-05	-5.62167e-05	0.00487545	0.00167633	0.00515559	18.9746	-5.51923e-07
354.66	188.27	81.6031	205.194	-23.4337	45.379	0.083467	-0.000828593	5.49923	0.869731	1	11	0.13043	0.000635644	-1.6205e-05	-0.000296759	0.00447148	0.0019381	0.00487343	23.4337	-3.13866e-07
251.044	193.467	107.271	221.216	-29.007	47.6479	0.0834701	-0.000868926	5.90998	1.3897	1	11	0.130399	0.000589464	-1.74649e-05	0.000264507	0.00395342	0.00219205	0.00452047	29.007	-6.93066e-07
177.781	199.304	142.93	245.257	-35.646	49.9403	0.0834718	-0.000865395	6.26342	2.12723	1	11	0.130375	0.000531585	-1.74424e-05	-5.62167e-05	0.0033134	0.00237619	0.00407736	35.646	3.48892e-07
125.846	206.031	192.559	282.006	-43.0642	52.4644	0.0834626	-0.000120179	6.56778	3.06215	1	12	0.130983	0.000464468	-1.77942e-05	0.000104145	0.00259068	0.00242128	0.00354602	43.0642	-3.1667e-07
89.116	213.935	261.465	337.835	-50.7093	54.7367	0.0834686	-0.000123388	6.83048	4.09138	1	12	0.130751	0.000387027	-1.83966e-05	-0.000296759	0.00187445	0.00229089	0.00296003	50.7093	6.33605e-08
63.0823	223.368	357.529	421.569	-58.0048	57.0328	0.0834716	-0.000129935	7.05669	5.0756	1	12	0.130566	0.000309716	-1.85838e-05	-0.000296759	0.00125685	0.00201175	0.00237209	58.0048	-1.46168e-07
44.6712	234.995	491.459	544.752	-64.4448	59.2972	0.0834647	-0.000137249	7.24945	5.90041	1	12	0.130447	0.000239461	-1.83272e-05	-0.000136398	0.000791884	0.00165611	0.0018357	64.4448	-9.90512e-08
31.6296	249.846	678.438	722.981	-69.7829	61.5345	0.083459	-0.000127645	7.41681	6.53106	1	12	0.130368	0.00018032	-1.83019e-05	-5.62167e-05	0.000477991	0.00129795	0.00138316	69.7829	1.44814e-07
22.3854	269.677	939.847	977.772	-73.9898	63.7824	0.0834598	-0.000133652	7.56482	6.98936	1	12	0.130325	0.000133288	-1.84242e-05	-5.62167e-05	0.000282078	0.000983065	0.00102273	73.9898	-3.71608e-07
15.8576	297.341	1303.46	1336.94	-77.1497	66.1099	0.0834609	-0.000132627	7.69993	7.31906	1	12	0.130303	9.74635e-05	-1.81504e-05	0.000344687	0.000166353	0.000729243	0.000747976	77.1497	4.61332e-07
11.2249	336.422	1810.82	1841.81	-79.4753	68.4869	0.0834687	-0.000138857	7.83004	7.5688	1	12	0.130286	7.07382e-05	-1.84887e-05	2.39641e-05	9.91736e-05	0.000533811	0.000542945	79.4753	1.72297e-07
7.93953	393.489	2518.05	2548.61	-81.1184	71.0307	0.0834719	-0.000128787	7.96087	7.7711	1	12	0.130283	5.1119e-05	-1.83378e-05	2.39641e-05	6.05795e-05	0.000387666	0.00039237	81.1184	3.88706e-07
5.6205	473.591	3515.05	3546.81	-82.3266	73.0897	0.0834718	-7.86904e-05	8.05588	7.91225	1	13	0.130312	3.67406e-05	-1.85076e-05	0.000264507	3.76466e-05	0.000279418	0.000281943	82.3266	8.92407e-08
3.97785	605.466	4874.62	4912.08	-82.9197	75.6252	0.0834701	4.12651e-05	8.20787	8.08317	1	13	0.130289	2.65242e-05	-1.8883e-05	-0.000216578	2.50934e-05	0.000202027	0.00020358	82.9197	2.24445e-07
2.81836	782.758	6764.11	6809.25	-83.399	79.1236	0.0834744	2.87758e-05	8.34858	8.23826	1	13	0.130283	1.91332e-05	-1.8947e-05	-5.62167e-05	1.68822e-05	0.000145885	0.000146859	83.399	4.06683e-08
1.99706	1057.3	9349.1	9408.69	-83.5478	83.9866	0.0834799	1.01602e-05	8.52431	8.41666	1	13	0.130279	1.38467e-05	-1.86993e-05	0.000104145	1.19437e-05	0.000105611	0.000106285	83.5478	4.17126e-07
1.41224	1442.62	12945.9	13026	-83.6415	90.7932	0.0834808	-1.41048e-05	8.70523	8.59846	1	13	0.130276	1.00012e-05	-1.85789e-05	-0.000136398	8.50215e-06	7.62972e-05	7.67694e-05	83.6415	4.5595e-07
1.00006	2047.21	17886	18002.8	-83.4704	100.339	0.0834705	-8.85379e-06	8.89774	8.78268	1	13	0.130275	7.23637e-06	-1.91421e-05	-5.62167e-05	6.31662e-06	5.51867e-05	5.5547e-05	83.4704	-5.78816e-07